Study Name	fullMap
Sample Name	CuCrAl
Run Name	spot00
Operator	Colin
Date	1/31/2024
Time	12:24 PM
Sign	POS
Grating Spacing	06.40um
Channel	2
Number Traces	2000
Files in Batch	1
Batch Number	1
dt	50.000001E-12
time stamp (ms)	5:56:59 PM
	
Time	Amplitude
0.000000E+0	6.681129E-5
5.000000E-11	1.421881E-4
1.000000E-10	1.901552E-4
1.500000E-10	1.353357E-4
2.000000E-10	-5.139330E-6
2.500000E-10	-1.404750E-4
3.000000E-10	-2.329830E-4
3.500000E-10	-3.186385E-4
4.000000E-10	-4.162857E-4
4.500000E-10	-5.053675E-4
5.000000E-10	-5.773181E-4
5.500000E-10	-6.372769E-4
6.000000E-10	-7.023751E-4
6.500000E-10	-7.092275E-4
7.000000E-10	-5.824574E-4
7.500000E-10	-3.905891E-4
8.000000E-10	-2.364092E-4
8.500000E-10	-4.796708E-5
9.000000E-10	2.227043E-4
9.500000E-10	4.813839E-4
1.000000E-9	7.109407E-4
1.050000E-9	9.422105E-4
1.100000E-9	1.137505E-3
1.150000E-9	1.242005E-3
1.200000E-9	1.289972E-3
1.250000E-9	1.284833E-3
1.300000E-9	1.185472E-3
1.350000E-9	1.019300E-3
1.400000E-9	8.274321E-4
1.450000E-9	6.321376E-4
1.500000E-9	4.830970E-4
1.550000E-9	3.648924E-4
1.600000E-9	2.295567E-4
1.650000E-9	1.182046E-4
1.700000E-9	4.968019E-5
1.750000E-9	-2.055732E-5
1.800000E-9	-7.366373E-5
1.850000E-9	-5.481952E-5
1.900000E-9	-2.227043E-5
1.950000E-9	-5.481952E-5
2.000000E-9	-1.353357E-4
2.050000E-9	-1.987208E-4
2.100000E-9	-2.192781E-4
2.150000E-9	-1.610323E-4
2.200000E-9	-6.338507E-5
2.250000E-9	4.454086E-5
2.300000E-9	1.850159E-4
2.350000E-9	2.963680E-4
2.400000E-9	3.083598E-4
2.450000E-9	3.083598E-4
2.500000E-9	3.700318E-4
2.550000E-9	4.025809E-4
2.600000E-9	3.426220E-4
2.650000E-9	2.638189E-4
2.700000E-9	1.867290E-4
2.750000E-9	1.044997E-4
2.800000E-9	6.338507E-5
2.850000E-9	4.625397E-5
2.900000E-9	1.199177E-5
2.950000E-9	-1.199177E-5
3.000000E-9	6.852440E-6
3.050000E-9	3.254909E-5
3.100000E-9	6.167196E-5
3.150000E-9	9.250794E-5
3.200000E-9	7.537684E-5
3.250000E-9	1.541799E-5
3.300000E-9	-3.426220E-5
3.350000E-9	-4.968019E-5
3.400000E-9	-4.796708E-5
3.450000E-9	-2.227043E-5
3.500000E-9	-1.713110E-6
3.550000E-9	-3.083598E-5
3.600000E-9	-7.366373E-5
3.650000E-9	-8.222928E-5
3.700000E-9	-4.968019E-5
3.750000E-9	-3.426220E-6
3.800000E-9	5.139330E-5
3.850000E-9	1.216308E-4
3.900000E-9	1.815897E-4
3.950000E-9	2.295567E-4
4.000000E-9	3.032205E-4
4.050000E-9	3.957284E-4
4.100000E-9	4.574004E-4
4.150000E-9	4.625397E-4
4.200000E-9	4.419824E-4
4.250000E-9	4.060071E-4
4.300000E-9	3.597531E-4
4.350000E-9	3.443351E-4
4.400000E-9	3.888760E-4
4.450000E-9	4.591135E-4
4.500000E-9	5.207854E-4
4.550000E-9	5.636132E-4
4.600000E-9	5.756050E-4
4.650000E-9	5.790312E-4
4.700000E-9	5.927361E-4
4.750000E-9	6.184327E-4
4.800000E-9	6.715391E-4
4.850000E-9	7.486291E-4
4.900000E-9	8.514157E-4
4.950000E-9	9.456367E-4
5.000000E-9	9.833251E-4
5.050000E-9	9.661940E-4
5.100000E-9	9.285056E-4
5.150000E-9	8.531288E-4
5.200000E-9	6.852440E-4
5.250000E-9	4.385562E-4
5.300000E-9	2.055732E-4
5.350000E-9	-2.055732E-5
5.400000E-9	-2.501141E-4
5.450000E-9	-4.488348E-4
5.500000E-9	-6.252852E-4
5.550000E-9	-8.188666E-4
5.600000E-9	-9.542023E-4
5.650000E-9	-1.005596E-3
5.700000E-9	-1.039858E-3
5.750000E-9	-1.063841E-3
5.800000E-9	-1.026153E-3
5.850000E-9	-9.250794E-4
5.900000E-9	-8.000224E-4
5.950000E-9	-6.458425E-4
6.000000E-9	-4.693921E-4
6.050000E-9	-2.809500E-4
6.100000E-9	-8.565550E-5
6.150000E-9	9.936038E-5
6.200000E-9	2.586796E-4
6.250000E-9	3.751711E-4
6.300000E-9	4.299906E-4
6.350000E-9	4.128595E-4
6.400000E-9	3.443351E-4
6.450000E-9	2.209912E-4
6.500000E-9	7.880306E-5
6.550000E-9	-4.968019E-5
6.600000E-9	-1.901552E-4
6.650000E-9	-3.700318E-4
6.700000E-9	-5.464821E-4
6.750000E-9	-7.177931E-4
6.800000E-9	-9.233663E-4
6.850000E-9	-1.115235E-3
6.900000E-9	-1.230013E-3
6.950000E-9	-1.336226E-3
7.000000E-9	-1.468135E-3
7.050000E-9	-1.572635E-3
7.100000E-9	-1.625741E-3
7.150000E-9	-1.642872E-3
7.200000E-9	-1.594905E-3
7.250000E-9	-1.432160E-3
7.300000E-9	-1.202603E-3
7.350000E-9	-9.473498E-4
7.400000E-9	-6.372769E-4
7.450000E-9	-2.466878E-4
7.500000E-9	1.644586E-4
7.550000E-9	4.933757E-4
7.600000E-9	7.109407E-4
7.650000E-9	9.010959E-4
7.700000E-9	1.075833E-3
7.750000E-9	1.166628E-3
7.800000E-9	1.120374E-3
7.850000E-9	9.679072E-4
7.900000E-9	7.332111E-4
7.950000E-9	4.488348E-4
8.000000E-9	1.507537E-4
8.050000E-9	-1.524668E-4
8.100000E-9	-4.899495E-4
8.150000E-9	-7.931699E-4
8.200000E-9	-1.033005E-3
8.250000E-9	-1.211169E-3
8.300000E-9	-1.349931E-3
8.350000E-9	-1.392758E-3
8.400000E-9	-1.334513E-3
8.450000E-9	-1.218021E-3
8.500000E-9	-1.067268E-3
8.550000E-9	-8.616943E-4
8.600000E-9	-6.835309E-4
8.650000E-9	-5.738919E-4
8.700000E-9	-4.591135E-4
8.750000E-9	-3.443351E-4
8.800000E-9	-3.015074E-4
8.850000E-9	-3.289171E-4
8.900000E-9	-3.443351E-4
8.950000E-9	-3.631793E-4
9.000000E-9	-3.648924E-4
9.050000E-9	-3.083598E-4
9.100000E-9	-2.209912E-4
9.150000E-9	-1.421881E-4
9.200000E-9	-6.852440E-5
9.250000E-9	-2.912287E-5
9.300000E-9	-7.708995E-5
9.350000E-9	-1.918683E-4
9.400000E-9	-3.391958E-4
9.450000E-9	-5.224986E-4
9.500000E-9	-6.903833E-4
9.550000E-9	-8.120141E-4
9.600000E-9	-9.542023E-4
9.650000E-9	-1.110095E-3
9.700000E-9	-1.156349E-3
9.750000E-9	-1.091251E-3
9.800000E-9	-9.884645E-4
9.850000E-9	-8.394239E-4
9.900000E-9	-6.013016E-4
9.950000E-9	-3.289171E-4
1.000000E-8	-7.708995E-5
1.005000E-8	1.695979E-4
1.010000E-8	4.094333E-4
1.015000E-8	6.064409E-4
1.020000E-8	7.417766E-4
1.025000E-8	7.948830E-4
1.030000E-8	7.948830E-4
1.035000E-8	7.726126E-4
1.040000E-8	6.852440E-4
1.045000E-8	5.190723E-4
1.050000E-8	3.374827E-4
1.055000E-8	2.209912E-4
1.060000E-8	1.524668E-4
1.065000E-8	7.195062E-5
1.070000E-8	-1.027866E-5
1.075000E-8	-4.968019E-5
1.080000E-8	-5.824574E-5
1.085000E-8	-5.481952E-5
1.090000E-8	-2.569665E-5
1.095000E-8	6.681129E-5
1.100000E-8	2.312699E-4
1.105000E-8	4.060071E-4
1.110000E-8	5.841705E-4
1.115000E-8	7.349242E-4
1.120000E-8	8.668337E-4
1.125000E-8	9.456367E-4
1.130000E-8	9.713334E-4
1.135000E-8	9.970300E-4
1.140000E-8	1.055276E-3
1.145000E-8	1.070694E-3
1.150000E-8	1.007309E-3
1.155000E-8	9.148007E-4
1.160000E-8	7.708995E-4
1.165000E-8	5.516214E-4
1.170000E-8	3.169254E-4
1.175000E-8	1.113522E-4
1.180000E-8	-8.736861E-5
1.185000E-8	-2.860894E-4
1.190000E-8	-4.145726E-4
1.195000E-8	-4.505479E-4
1.200000E-8	-4.693921E-4
1.205000E-8	-4.916626E-4
1.210000E-8	-4.454086E-4
1.215000E-8	-3.152122E-4
1.220000E-8	-1.524668E-4
1.225000E-8	2.912287E-5
1.230000E-8	2.278436E-4
1.235000E-8	3.768842E-4
1.240000E-8	4.008677E-4
1.245000E-8	3.220647E-4
1.250000E-8	1.918683E-4
1.255000E-8	-4.454086E-5
1.260000E-8	-3.974415E-4
1.265000E-8	-7.349242E-4
1.270000E-8	-9.764727E-4
1.275000E-8	-1.202603E-3
1.280000E-8	-1.404750E-3
1.285000E-8	-1.447578E-3
1.290000E-8	-1.327660E-3
1.295000E-8	-1.156349E-3
1.300000E-8	-9.610547E-4
1.305000E-8	-6.835309E-4
1.310000E-8	-3.460482E-4
1.315000E-8	-2.398354E-5
1.320000E-8	2.312699E-4
1.325000E-8	4.008677E-4
1.330000E-8	5.070806E-4
1.335000E-8	5.293510E-4
1.340000E-8	4.351299E-4
1.345000E-8	2.895156E-4
1.350000E-8	1.798766E-4
1.355000E-8	8.394239E-5
1.360000E-8	-2.912287E-5
1.365000E-8	-1.216308E-4
1.370000E-8	-1.421881E-4
1.375000E-8	-1.044997E-4
1.380000E-8	-1.884421E-5
1.385000E-8	1.387619E-4
1.390000E-8	3.529007E-4
1.395000E-8	5.773181E-4
1.400000E-8	7.897437E-4
1.405000E-8	9.867514E-4
1.410000E-8	1.156349E-3
1.415000E-8	1.281406E-3
1.420000E-8	1.339652E-3
1.425000E-8	1.353357E-3
1.430000E-8	1.310529E-3
1.435000E-8	1.175193E-3
1.440000E-8	9.524892E-4
1.445000E-8	7.246455E-4
1.450000E-8	5.396297E-4
1.455000E-8	3.717449E-4
1.460000E-8	1.764503E-4
1.465000E-8	-1.199177E-5
1.470000E-8	-1.730241E-4
1.475000E-8	-3.426220E-4
1.480000E-8	-5.105068E-4
1.485000E-8	-6.218589E-4
1.490000E-8	-6.972358E-4
1.495000E-8	-7.914568E-4
1.500000E-8	-8.445632E-4
1.505000E-8	-8.445632E-4
1.510000E-8	-8.702599E-4
1.515000E-8	-9.610547E-4
1.520000E-8	-1.044997E-3
1.525000E-8	-1.079259E-3
1.530000E-8	-1.108382E-3
1.535000E-8	-1.135792E-3
1.540000E-8	-1.132366E-3
1.545000E-8	-1.072407E-3
1.550000E-8	-9.576285E-4
1.555000E-8	-7.794651E-4
1.560000E-8	-5.670394E-4
1.565000E-8	-4.008677E-4
1.570000E-8	-2.929418E-4
1.575000E-8	-1.987208E-4
1.580000E-8	-1.473275E-4
1.585000E-8	-1.610323E-4
1.590000E-8	-2.141388E-4
1.595000E-8	-2.997943E-4
1.600000E-8	-4.128595E-4
1.605000E-8	-5.379165E-4
1.610000E-8	-6.766785E-4
1.615000E-8	-8.274321E-4
1.620000E-8	-9.422105E-4
1.625000E-8	-1.002169E-3
1.630000E-8	-1.072407E-3
1.635000E-8	-1.134079E-3
1.640000E-8	-1.084399E-3
1.645000E-8	-9.353581E-4
1.650000E-8	-7.965962E-4
1.655000E-8	-6.475556E-4
1.660000E-8	-4.522610E-4
1.665000E-8	-2.706714E-4
1.670000E-8	-1.730241E-4
1.675000E-8	-1.439012E-4
1.680000E-8	-1.079259E-4
1.685000E-8	-2.569665E-5
1.690000E-8	1.079259E-4
1.695000E-8	2.261305E-4
1.700000E-8	3.374827E-4
1.705000E-8	5.362034E-4
1.710000E-8	8.411370E-4
1.715000E-8	1.182046E-3
1.720000E-8	1.589766E-3
1.725000E-8	2.158519E-3
1.730000E-8	2.922566E-3
1.735000E-8	3.851071E-3
1.740000E-8	4.909773E-3
1.745000E-8	6.048991E-3
1.750000E-8	7.195062E-3
1.755000E-8	8.298305E-3
1.760000E-8	9.346728E-3
1.765000E-8	1.028723E-2
1.770000E-8	1.108553E-2
1.775000E-8	1.172966E-2
1.780000E-8	1.221790E-2
1.785000E-8	1.259307E-2
1.790000E-8	1.289115E-2
1.795000E-8	1.311557E-2
1.800000E-8	1.332628E-2
1.805000E-8	1.357297E-2
1.810000E-8	1.386591E-2
1.815000E-8	1.419654E-2
1.820000E-8	1.458371E-2
1.825000E-8	1.502911E-2
1.830000E-8	1.548138E-2
1.835000E-8	1.590623E-2
1.840000E-8	1.627283E-2
1.845000E-8	1.655550E-2
1.850000E-8	1.674908E-2
1.855000E-8	1.680904E-2
1.860000E-8	1.668055E-2
1.865000E-8	1.638247E-2
1.870000E-8	1.592507E-2
1.875000E-8	1.528094E-2
1.880000E-8	1.452717E-2
1.885000E-8	1.374942E-2
1.890000E-8	1.291000E-2
1.895000E-8	1.200034E-2
1.900000E-8	1.116605E-2
1.905000E-8	1.047738E-2
1.910000E-8	9.857235E-3
1.915000E-8	9.305614E-3
1.920000E-8	8.909885E-3
1.925000E-8	8.654632E-3
1.930000E-8	8.479895E-3
1.935000E-8	8.409657E-3
1.940000E-8	8.515870E-3
1.945000E-8	8.791681E-3
1.950000E-8	9.218245E-3
1.955000E-8	9.807555E-3
1.960000E-8	1.055618E-2
1.965000E-8	1.146927E-2
1.970000E-8	1.254168E-2
1.975000E-8	1.371002E-2
1.980000E-8	1.486808E-2
1.985000E-8	1.595933E-2
1.990000E-8	1.701290E-2
1.995000E-8	1.801335E-2
2.000000E-8	1.885963E-2
2.005000E-8	1.954316E-2
2.010000E-8	2.006223E-2
2.015000E-8	2.033290E-2
2.020000E-8	2.029179E-2
2.025000E-8	1.997315E-2
2.030000E-8	1.942667E-2
2.035000E-8	1.866262E-2
2.040000E-8	1.773069E-2
2.045000E-8	1.667370E-2
2.050000E-8	1.553791E-2
2.055000E-8	1.437471E-2
2.060000E-8	1.324577E-2
2.065000E-8	1.220762E-2
2.070000E-8	1.125513E-2
2.075000E-8	1.040714E-2
2.080000E-8	9.696203E-3
2.085000E-8	9.117171E-3
2.090000E-8	8.625509E-3
2.095000E-8	8.255477E-3
2.100000E-8	8.101297E-3
2.105000E-8	8.193805E-3
2.110000E-8	8.466190E-3
2.115000E-8	8.904746E-3
2.120000E-8	9.494056E-3
2.125000E-8	1.022384E-2
2.130000E-8	1.103585E-2
2.135000E-8	1.192496E-2
2.140000E-8	1.289801E-2
2.145000E-8	1.388990E-2
2.150000E-8	1.478414E-2
2.155000E-8	1.556189E-2
2.160000E-8	1.623857E-2
2.165000E-8	1.683131E-2
2.170000E-8	1.727671E-2
2.175000E-8	1.758850E-2
2.180000E-8	1.772726E-2
2.185000E-8	1.764846E-2
2.190000E-8	1.737607E-2
2.195000E-8	1.697178E-2
2.200000E-8	1.640817E-2
2.205000E-8	1.570408E-2
2.210000E-8	1.498629E-2
2.215000E-8	1.437128E-2
2.220000E-8	1.384193E-2
2.225000E-8	1.339995E-2
2.230000E-8	1.305390E-2
2.235000E-8	1.277809E-2
2.240000E-8	1.254853E-2
2.245000E-8	1.232411E-2
2.250000E-8	1.215452E-2
2.255000E-8	1.203974E-2
2.260000E-8	1.196093E-2
2.265000E-8	1.192667E-2
2.270000E-8	1.195922E-2
2.275000E-8	1.203631E-2
2.280000E-8	1.203460E-2
2.285000E-8	1.194038E-2
2.290000E-8	1.180675E-2
2.295000E-8	1.163887E-2
2.300000E-8	1.141274E-2
2.305000E-8	1.120203E-2
2.310000E-8	1.102044E-2
2.315000E-8	1.079088E-2
2.320000E-8	1.053220E-2
2.325000E-8	1.035404E-2
2.330000E-8	1.029065E-2
2.335000E-8	1.033177E-2
2.340000E-8	1.050650E-2
2.345000E-8	1.085769E-2
2.350000E-8	1.135107E-2
2.355000E-8	1.194894E-2
2.360000E-8	1.262048E-2
2.365000E-8	1.332286E-2
2.370000E-8	1.404408E-2
2.375000E-8	1.475159E-2
2.380000E-8	1.539058E-2
2.385000E-8	1.594391E-2
2.390000E-8	1.638761E-2
2.395000E-8	1.662745E-2
2.400000E-8	1.662059E-2
2.405000E-8	1.649211E-2
2.410000E-8	1.625056E-2
2.415000E-8	1.583085E-2
2.420000E-8	1.525524E-2
2.425000E-8	1.465394E-2
2.430000E-8	1.401667E-2
2.435000E-8	1.328003E-2
2.440000E-8	1.246459E-2
2.445000E-8	1.163202E-2
2.450000E-8	1.079773E-2
2.455000E-8	9.990858E-3
2.460000E-8	9.242229E-3
2.465000E-8	8.579255E-3
2.470000E-8	8.084166E-3
2.475000E-8	7.808355E-3
2.480000E-8	7.683298E-3
2.485000E-8	7.647323E-3
2.490000E-8	7.762101E-3
2.495000E-8	8.060183E-3
2.500000E-8	8.497026E-3
2.505000E-8	9.017811E-3
2.510000E-8	9.627678E-3
2.515000E-8	1.027866E-2
2.520000E-8	1.094506E-2
2.525000E-8	1.165257E-2
2.530000E-8	1.238065E-2
2.535000E-8	1.306760E-2
2.540000E-8	1.372886E-2
2.545000E-8	1.441582E-2
2.550000E-8	1.511477E-2
2.555000E-8	1.576404E-2
2.560000E-8	1.634307E-2
2.565000E-8	1.684330E-2
2.570000E-8	1.722189E-2
2.575000E-8	1.743946E-2
2.580000E-8	1.743261E-2
2.585000E-8	1.717907E-2
2.590000E-8	1.675250E-2
2.595000E-8	1.617518E-2
2.600000E-8	1.544026E-2
2.605000E-8	1.455630E-2
2.610000E-8	1.357640E-2
2.615000E-8	1.250228E-2
2.620000E-8	1.138019E-2
2.625000E-8	1.035232E-2
2.630000E-8	9.535170E-3
2.635000E-8	8.894467E-3
2.640000E-8	8.419936E-3
2.645000E-8	8.178387E-3
2.650000E-8	8.156117E-3
2.655000E-8	8.277748E-3
2.660000E-8	8.495313E-3
2.665000E-8	8.803672E-3
2.670000E-8	9.189122E-3
2.675000E-8	9.625965E-3
2.680000E-8	1.004910E-2
2.685000E-8	1.043284E-2
2.690000E-8	1.081486E-2
2.695000E-8	1.124143E-2
2.700000E-8	1.169369E-2
2.705000E-8	1.214938E-2
2.710000E-8	1.260678E-2
2.715000E-8	1.305561E-2
2.720000E-8	1.345991E-2
2.725000E-8	1.380424E-2
2.730000E-8	1.411089E-2
2.735000E-8	1.443466E-2
2.740000E-8	1.472589E-2
2.745000E-8	1.493661E-2
2.750000E-8	1.505652E-2
2.755000E-8	1.513704E-2
2.760000E-8	1.516959E-2
2.765000E-8	1.512847E-2
2.770000E-8	1.500856E-2
2.775000E-8	1.483553E-2
2.780000E-8	1.460426E-2
2.785000E-8	1.428905E-2
2.790000E-8	1.390189E-2
2.795000E-8	1.348560E-2
2.800000E-8	1.304876E-2
2.805000E-8	1.262219E-2
2.810000E-8	1.221447E-2
2.815000E-8	1.184787E-2
2.820000E-8	1.155664E-2
2.825000E-8	1.134421E-2
2.830000E-8	1.112836E-2
2.835000E-8	1.089538E-2
2.840000E-8	1.069495E-2
2.845000E-8	1.053563E-2
2.850000E-8	1.037117E-2
2.855000E-8	1.017930E-2
2.860000E-8	9.994284E-3
2.865000E-8	9.840104E-3
2.870000E-8	9.749309E-3
2.875000E-8	9.747596E-3
2.880000E-8	9.826399E-3
2.885000E-8	1.000628E-2
2.890000E-8	1.031977E-2
2.895000E-8	1.070865E-2
2.900000E-8	1.112322E-2
2.905000E-8	1.162516E-2
2.910000E-8	1.221619E-2
2.915000E-8	1.283976E-2
2.920000E-8	1.345648E-2
2.925000E-8	1.405435E-2
2.930000E-8	1.458542E-2
2.935000E-8	1.497601E-2
2.940000E-8	1.527238E-2
2.945000E-8	1.548309E-2
2.950000E-8	1.557731E-2
2.955000E-8	1.557046E-2
2.960000E-8	1.549679E-2
2.965000E-8	1.534090E-2
2.970000E-8	1.509935E-2
2.975000E-8	1.473960E-2
2.980000E-8	1.421196E-2
2.985000E-8	1.352672E-2
2.990000E-8	1.277809E-2
2.995000E-8	1.197807E-2
3.000000E-8	1.109581E-2
3.005000E-8	1.019814E-2
3.010000E-8	9.416966E-3
3.015000E-8	8.738574E-3
3.020000E-8	8.147551E-3
3.025000E-8	7.717561E-3
3.030000E-8	7.476012E-3
3.035000E-8	7.368086E-3
3.040000E-8	7.388643E-3
3.045000E-8	7.559954E-3
3.050000E-8	7.870027E-3
3.055000E-8	8.330854E-3
3.060000E-8	8.927016E-3
3.065000E-8	9.572859E-3
3.070000E-8	1.028037E-2
3.075000E-8	1.109410E-2
3.080000E-8	1.194209E-2
3.085000E-8	1.276610E-2
3.090000E-8	1.363293E-2
3.095000E-8	1.451518E-2
3.100000E-8	1.526038E-2
3.105000E-8	1.587368E-2
3.110000E-8	1.638932E-2
3.115000E-8	1.669940E-2
3.120000E-8	1.674565E-2
3.125000E-8	1.662231E-2
3.130000E-8	1.632594E-2
3.135000E-8	1.580687E-2
3.140000E-8	1.511820E-2
3.145000E-8	1.433873E-2
3.150000E-8	1.355070E-2
3.155000E-8	1.275068E-2
3.160000E-8	1.190440E-2
3.165000E-8	1.106155E-2
3.170000E-8	1.033519E-2
3.175000E-8	9.783571E-3
3.180000E-8	9.338163E-3
3.185000E-8	9.014385E-3
3.190000E-8	8.865344E-3
3.195000E-8	8.820803E-3
3.200000E-8	8.791681E-3
3.205000E-8	8.839648E-3
3.210000E-8	8.978410E-3
3.215000E-8	9.129163E-3
3.220000E-8	9.273064E-3
3.225000E-8	9.418679E-3
3.230000E-8	9.548875E-3
3.235000E-8	9.680785E-3
3.240000E-8	9.900063E-3
3.245000E-8	1.018101E-2
3.250000E-8	1.050822E-2
3.255000E-8	1.092450E-2
3.260000E-8	1.142473E-2
3.265000E-8	1.191982E-2
3.270000E-8	1.237893E-2
3.275000E-8	1.281578E-2
3.280000E-8	1.317553E-2
3.285000E-8	1.346333E-2
3.290000E-8	1.371858E-2
3.295000E-8	1.392758E-2
3.300000E-8	1.404065E-2
3.305000E-8	1.406463E-2
3.310000E-8	1.407320E-2
3.315000E-8	1.405264E-2
3.320000E-8	1.393444E-2
3.325000E-8	1.373914E-2
3.330000E-8	1.353186E-2
3.335000E-8	1.331429E-2
3.340000E-8	1.301450E-2
3.345000E-8	1.264960E-2
3.350000E-8	1.233953E-2
3.355000E-8	1.209798E-2
3.360000E-8	1.184787E-2
3.365000E-8	1.159090E-2
3.370000E-8	1.138190E-2
3.375000E-8	1.115920E-2
3.380000E-8	1.086797E-2
3.385000E-8	1.058702E-2
3.390000E-8	1.029922E-2
3.395000E-8	9.898350E-3
3.400000E-8	9.432384E-3
3.405000E-8	9.021237E-3
3.410000E-8	8.661484E-3
3.415000E-8	8.303444E-3
3.420000E-8	8.034486E-3
3.425000E-8	7.950544E-3
3.430000E-8	8.031060E-3
3.435000E-8	8.248625E-3
3.440000E-8	8.620370E-3
3.445000E-8	9.163425E-3
3.450000E-8	9.901776E-3
3.455000E-8	1.080287E-2
3.460000E-8	1.175193E-2
3.465000E-8	1.271128E-2
3.470000E-8	1.368775E-2
3.475000E-8	1.462653E-2
3.480000E-8	1.542656E-2
3.485000E-8	1.605869E-2
3.490000E-8	1.651267E-2
3.495000E-8	1.678163E-2
3.500000E-8	1.690668E-2
3.505000E-8	1.690840E-2
3.510000E-8	1.679876E-2
3.515000E-8	1.656749E-2
3.520000E-8	1.615977E-2
3.525000E-8	1.555847E-2
3.530000E-8	1.487665E-2
3.535000E-8	1.426678E-2
3.540000E-8	1.363293E-2
3.545000E-8	1.287745E-2
3.550000E-8	1.213396E-2
3.555000E-8	1.149839E-2
3.560000E-8	1.083713E-2
3.565000E-8	1.007480E-2
3.570000E-8	9.367286E-3
3.575000E-8	8.798533E-3
3.580000E-8	8.310297E-3
3.585000E-8	7.895724E-3
3.590000E-8	7.676446E-3
3.595000E-8	7.676446E-3
3.600000E-8	7.789511E-3
3.605000E-8	8.007076E-3
3.610000E-8	8.359977E-3
3.615000E-8	8.825943E-3
3.620000E-8	9.420392E-3
3.625000E-8	1.015189E-2
3.630000E-8	1.099474E-2
3.635000E-8	1.186329E-2
3.640000E-8	1.271128E-2
3.645000E-8	1.349931E-2
3.650000E-8	1.425650E-2
3.655000E-8	1.496230E-2
3.660000E-8	1.553448E-2
3.665000E-8	1.593878E-2
3.670000E-8	1.626084E-2
3.675000E-8	1.646299E-2
3.680000E-8	1.648354E-2
3.685000E-8	1.628825E-2
3.690000E-8	1.592336E-2
3.695000E-8	1.540086E-2
3.700000E-8	1.478414E-2
3.705000E-8	1.408690E-2
3.710000E-8	1.334684E-2
3.715000E-8	1.258793E-2
3.720000E-8	1.182046E-2
3.725000E-8	1.105641E-2
3.730000E-8	1.037117E-2
3.735000E-8	9.864087E-3
3.740000E-8	9.487203E-3
3.745000E-8	9.187409E-3
3.750000E-8	8.988688E-3
3.755000E-8	8.853353E-3
3.760000E-8	8.716304E-3
3.765000E-8	8.632361E-3
3.770000E-8	8.680328E-3
3.775000E-8	8.817377E-3
3.780000E-8	9.009246E-3
3.785000E-8	9.278204E-3
3.790000E-8	9.646522E-3
3.795000E-8	1.006795E-2
3.800000E-8	1.054591E-2
3.805000E-8	1.108382E-2
3.810000E-8	1.163887E-2
3.815000E-8	1.220248E-2
3.820000E-8	1.271299E-2
3.825000E-8	1.313099E-2
3.830000E-8	1.342050E-2
3.835000E-8	1.360038E-2
3.840000E-8	1.369289E-2
3.845000E-8	1.374086E-2
3.850000E-8	1.376313E-2
3.855000E-8	1.377683E-2
3.860000E-8	1.374771E-2
3.865000E-8	1.369118E-2
3.870000E-8	1.363978E-2
3.875000E-8	1.360723E-2
3.880000E-8	1.360209E-2
3.885000E-8	1.358325E-2
3.890000E-8	1.353871E-2
3.895000E-8	1.342907E-2
3.900000E-8	1.321150E-2
3.905000E-8	1.286374E-2
3.910000E-8	1.245260E-2
3.915000E-8	1.203117E-2
3.920000E-8	1.160289E-2
3.925000E-8	1.114549E-2
3.930000E-8	1.069495E-2
3.935000E-8	1.025982E-2
3.940000E-8	9.822973E-3
3.945000E-8	9.394695E-3
3.950000E-8	9.022950E-3
3.955000E-8	8.747140E-3
3.960000E-8	8.599812E-3
3.965000E-8	8.608378E-3
3.970000E-8	8.719730E-3
3.975000E-8	8.873910E-3
3.980000E-8	9.086335E-3
3.985000E-8	9.384417E-3
3.990000E-8	9.771579E-3
3.995000E-8	1.022213E-2
4.000000E-8	1.076004E-2
4.005000E-8	1.135621E-2
4.010000E-8	1.195237E-2
4.015000E-8	1.258965E-2
4.020000E-8	1.325091E-2
4.025000E-8	1.384022E-2
4.030000E-8	1.431817E-2
4.035000E-8	1.474302E-2
4.040000E-8	1.514047E-2
4.045000E-8	1.543855E-2
4.050000E-8	1.563898E-2
4.055000E-8	1.574005E-2
4.060000E-8	1.567667E-2
4.065000E-8	1.537345E-2
4.070000E-8	1.490063E-2
4.075000E-8	1.434558E-2
4.080000E-8	1.369974E-2
4.085000E-8	1.292884E-2
4.090000E-8	1.205173E-2
4.095000E-8	1.115235E-2
4.100000E-8	1.023412E-2
4.105000E-8	9.336450E-3
4.110000E-8	8.519296E-3
4.115000E-8	7.820347E-3
4.120000E-8	7.215619E-3
4.125000E-8	6.732522E-3
4.130000E-8	6.441294E-3
4.135000E-8	6.355638E-3
4.140000E-8	6.415597E-3
4.145000E-8	6.561211E-3
4.150000E-8	6.790768E-3
4.155000E-8	7.093989E-3
4.160000E-8	7.445176E-3
4.165000E-8	7.842618E-3
4.170000E-8	8.332567E-3
4.175000E-8	8.933869E-3
4.180000E-8	9.605408E-3
4.185000E-8	1.032149E-2
4.190000E-8	1.107012E-2
4.195000E-8	1.179990E-2
4.200000E-8	1.246288E-2
4.205000E-8	1.307446E-2
4.210000E-8	1.361066E-2
4.215000E-8	1.400125E-2
4.220000E-8	1.424965E-2
4.225000E-8	1.436443E-2
4.230000E-8	1.430276E-2
4.235000E-8	1.406977E-2
4.240000E-8	1.373572E-2
4.245000E-8	1.329716E-2
4.250000E-8	1.276267E-2
4.255000E-8	1.223332E-2
4.260000E-8	1.180504E-2
4.265000E-8	1.141959E-2
4.270000E-8	1.102558E-2
4.275000E-8	1.070865E-2
4.280000E-8	1.049965E-2
4.285000E-8	1.032320E-2
4.290000E-8	1.013990E-2
4.295000E-8	9.977153E-3
4.300000E-8	9.838391E-3
4.305000E-8	9.713334E-3
4.310000E-8	9.617400E-3
4.315000E-8	9.564293E-3
4.320000E-8	9.497482E-3
4.325000E-8	9.420392E-3
4.330000E-8	9.392982E-3
4.335000E-8	9.478638E-3
4.340000E-8	9.639670E-3
4.345000E-8	9.855522E-3
4.350000E-8	1.011934E-2
4.355000E-8	1.040029E-2
4.360000E-8	1.065897E-2
4.365000E-8	1.093649E-2
4.370000E-8	1.124314E-2
4.375000E-8	1.151210E-2
4.380000E-8	1.173309E-2
4.385000E-8	1.196779E-2
4.390000E-8	1.219049E-2
4.395000E-8	1.231212E-2
4.400000E-8	1.241148E-2
4.405000E-8	1.257937E-2
4.410000E-8	1.273526E-2
4.415000E-8	1.283291E-2
4.420000E-8	1.292542E-2
4.425000E-8	1.305732E-2
4.430000E-8	1.318067E-2
4.435000E-8	1.331429E-2
4.440000E-8	1.349417E-2
4.445000E-8	1.364835E-2
4.450000E-8	1.366034E-2
4.455000E-8	1.356441E-2
4.460000E-8	1.338110E-2
4.465000E-8	1.306246E-2
4.470000E-8	1.262562E-2
4.475000E-8	1.209456E-2
4.480000E-8	1.149497E-2
4.485000E-8	1.085084E-2
4.490000E-8	1.018101E-2
4.495000E-8	9.454654E-3
4.500000E-8	8.700886E-3
4.505000E-8	8.049904E-3
4.510000E-8	7.565094E-3
4.515000E-8	7.208767E-3
4.520000E-8	7.001481E-3
4.525000E-8	6.998054E-3
4.530000E-8	7.162513E-3
4.535000E-8	7.469160E-3
4.540000E-8	7.911142E-3
4.545000E-8	8.437067E-3
4.550000E-8	9.040082E-3
4.555000E-8	9.730465E-3
4.560000E-8	1.047567E-2
4.565000E-8	1.121573E-2
4.570000E-8	1.191468E-2
4.575000E-8	1.255024E-2
4.580000E-8	1.309844E-2
4.585000E-8	1.358668E-2
4.590000E-8	1.400296E-2
4.595000E-8	1.429248E-2
4.600000E-8	1.444837E-2
4.605000E-8	1.453574E-2
4.610000E-8	1.454430E-2
4.615000E-8	1.440212E-2
4.620000E-8	1.410917E-2
4.625000E-8	1.374942E-2
4.630000E-8	1.334513E-2
4.635000E-8	1.284661E-2
4.640000E-8	1.224188E-2
4.645000E-8	1.157891E-2
4.650000E-8	1.089881E-2
4.655000E-8	1.018101E-2
4.660000E-8	9.418679E-3
4.665000E-8	8.688894E-3
4.670000E-8	8.032773E-3
4.675000E-8	7.486291E-3
4.680000E-8	7.054587E-3
4.685000E-8	6.725670E-3
4.690000E-8	6.502966E-3
4.695000E-8	6.451572E-3
4.700000E-8	6.569777E-3
4.705000E-8	6.816465E-3
4.710000E-8	7.188210E-3
4.715000E-8	7.676446E-3
4.720000E-8	8.209223E-3
4.725000E-8	8.784828E-3
4.730000E-8	9.411826E-3
4.735000E-8	1.000456E-2
4.740000E-8	1.052706E-2
4.745000E-8	1.103072E-2
4.750000E-8	1.152238E-2
4.755000E-8	1.191125E-2
4.760000E-8	1.221276E-2
4.765000E-8	1.251084E-2
4.770000E-8	1.280721E-2
4.775000E-8	1.302135E-2
4.780000E-8	1.311900E-2
4.785000E-8	1.310015E-2
4.790000E-8	1.297510E-2
4.795000E-8	1.276438E-2
4.800000E-8	1.247487E-2
4.805000E-8	1.205344E-2
4.810000E-8	1.151553E-2
4.815000E-8	1.097076E-2
4.820000E-8	1.050136E-2
4.825000E-8	1.007309E-2
4.830000E-8	9.675645E-3
4.835000E-8	9.333023E-3
4.840000E-8	9.084622E-3
4.845000E-8	9.009246E-3
4.850000E-8	9.148007E-3
4.855000E-8	9.380990E-3
4.860000E-8	9.577998E-3
4.865000E-8	9.788711E-3
4.870000E-8	1.004739E-2
4.875000E-8	1.027181E-2
4.880000E-8	1.041057E-2
4.885000E-8	1.049109E-2
4.890000E-8	1.053563E-2
4.895000E-8	1.051678E-2
4.900000E-8	1.043284E-2
4.905000E-8	1.029750E-2
4.910000E-8	1.014846E-2
4.915000E-8	1.006623E-2
4.920000E-8	1.003540E-2
4.925000E-8	9.989144E-3
4.930000E-8	9.951456E-3
4.935000E-8	1.002169E-2
4.940000E-8	1.021185E-2
4.945000E-8	1.043113E-2
4.950000E-8	1.064184E-2
4.955000E-8	1.087654E-2
4.960000E-8	1.112836E-2
4.965000E-8	1.133736E-2
4.970000E-8	1.152238E-2
4.975000E-8	1.167998E-2
4.980000E-8	1.179305E-2
4.985000E-8	1.185986E-2
4.990000E-8	1.190269E-2
4.995000E-8	1.190611E-2
5.000000E-8	1.188213E-2
5.005000E-8	1.183930E-2
5.010000E-8	1.175193E-2
5.015000E-8	1.158062E-2
5.020000E-8	1.135449E-2
5.025000E-8	1.107012E-2
5.030000E-8	1.069152E-2
5.035000E-8	1.021185E-2
5.040000E-8	9.655088E-3
5.045000E-8	9.002393E-3
5.050000E-8	8.293166E-3
5.055000E-8	7.595930E-3
5.060000E-8	6.924391E-3
5.065000E-8	6.304245E-3
5.070000E-8	5.850271E-3
5.075000E-8	5.581312E-3
5.080000E-8	5.480239E-3
5.085000E-8	5.584739E-3
5.090000E-8	5.932500E-3
5.095000E-8	6.472130E-3
5.100000E-8	7.159087E-3
5.105000E-8	7.964248E-3
5.110000E-8	8.824230E-3
5.115000E-8	9.665367E-3
5.120000E-8	1.051507E-2
5.125000E-8	1.137848E-2
5.130000E-8	1.217850E-2
5.135000E-8	1.288430E-2
5.140000E-8	1.349074E-2
5.145000E-8	1.400296E-2
5.150000E-8	1.440726E-2
5.155000E-8	1.467621E-2
5.160000E-8	1.479099E-2
5.165000E-8	1.474816E-2
5.170000E-8	1.454088E-2
5.175000E-8	1.415200E-2
5.180000E-8	1.361409E-2
5.185000E-8	1.300079E-2
5.190000E-8	1.232069E-2
5.195000E-8	1.151210E-2
5.200000E-8	1.054077E-2
5.205000E-8	9.507761E-3
5.210000E-8	8.454198E-3
5.215000E-8	7.393783E-3
5.220000E-8	6.405318E-3
5.225000E-8	5.574460E-3
5.230000E-8	4.909773E-3
5.235000E-8	4.440381E-3
5.240000E-8	4.257078E-3
5.245000E-8	4.373570E-3
5.250000E-8	4.681930E-3
5.255000E-8	5.142756E-3
5.260000E-8	5.754337E-3
5.265000E-8	6.461851E-3
5.270000E-8	7.191636E-3
5.275000E-8	7.929986E-3
5.280000E-8	8.671763E-3
5.285000E-8	9.392982E-3
5.290000E-8	1.005596E-2
5.295000E-8	1.065726E-2
5.300000E-8	1.119517E-2
5.305000E-8	1.168341E-2
5.310000E-8	1.211169E-2
5.315000E-8	1.245088E-2
5.320000E-8	1.266502E-2
5.325000E-8	1.275239E-2
5.330000E-8	1.274896E-2
5.335000E-8	1.266331E-2
5.340000E-8	1.247144E-2
5.345000E-8	1.226244E-2
5.350000E-8	1.205858E-2
5.355000E-8	1.184273E-2
5.360000E-8	1.160461E-2
5.365000E-8	1.135963E-2
5.370000E-8	1.107526E-2
5.375000E-8	1.073949E-2
5.380000E-8	1.042941E-2
5.385000E-8	1.017930E-2
5.390000E-8	9.944604E-3
5.395000E-8	9.745883E-3
5.400000E-8	9.613973E-3
5.405000E-8	9.488916E-3
5.410000E-8	9.374138E-3
5.415000E-8	9.262786E-3
5.420000E-8	9.101753E-3
5.425000E-8	8.892754E-3
5.430000E-8	8.707738E-3
5.435000E-8	8.539853E-3
5.440000E-8	8.349698E-3
5.445000E-8	8.161256E-3
5.450000E-8	8.013929E-3
5.455000E-8	7.887158E-3
5.460000E-8	7.810069E-3
5.465000E-8	7.825487E-3
5.470000E-8	7.899150E-3
5.475000E-8	8.008789E-3
5.480000E-8	8.186953E-3
5.485000E-8	8.402805E-3
5.490000E-8	8.658058E-3
5.495000E-8	8.985262E-3
5.500000E-8	9.372425E-3
5.505000E-8	9.781858E-3
5.510000E-8	1.023755E-2
5.515000E-8	1.075833E-2
5.520000E-8	1.127226E-2
5.525000E-8	1.176050E-2
5.530000E-8	1.225559E-2
5.535000E-8	1.264789E-2
5.540000E-8	1.284490E-2
5.545000E-8	1.289972E-2
5.550000E-8	1.287745E-2
5.555000E-8	1.272155E-2
5.560000E-8	1.242690E-2
5.565000E-8	1.209284E-2
5.570000E-8	1.168341E-2
5.575000E-8	1.110952E-2
5.580000E-8	1.044483E-2
5.585000E-8	9.773293E-3
5.590000E-8	9.118885E-3
5.595000E-8	8.476468E-3
5.600000E-8	7.871740E-3
5.605000E-8	7.304701E-3
5.610000E-8	6.741088E-3
5.615000E-8	6.206598E-3
5.620000E-8	5.711509E-3
5.625000E-8	5.242117E-3
5.630000E-8	4.841249E-3
5.635000E-8	4.577430E-3
5.640000E-8	4.469504E-3
5.645000E-8	4.496914E-3
5.650000E-8	4.692208E-3
5.655000E-8	5.110207E-3
5.660000E-8	5.762902E-3
5.665000E-8	6.614318E-3
5.670000E-8	7.625053E-3
5.675000E-8	8.781402E-3
5.680000E-8	1.004054E-2
5.685000E-8	1.127740E-2
5.690000E-8	1.235495E-2
5.695000E-8	1.328517E-2
5.700000E-8	1.406806E-2
5.705000E-8	1.462311E-2
5.710000E-8	1.492119E-2
5.715000E-8	1.498629E-2
5.720000E-8	1.483039E-2
5.725000E-8	1.443638E-2
5.730000E-8	1.385392E-2
5.735000E-8	1.313441E-2
5.740000E-8	1.227272E-2
5.745000E-8	1.133908E-2
5.750000E-8	1.045682E-2
5.755000E-8	9.619113E-3
5.760000E-8	8.774549E-3
5.765000E-8	7.916281E-3
5.770000E-8	7.121398E-3
5.775000E-8	6.424163E-3
5.780000E-8	5.884533E-3
5.785000E-8	5.552190E-3
5.790000E-8	5.358608E-3
5.795000E-8	5.250682E-3
5.800000E-8	5.334625E-3
5.805000E-8	5.660115E-3
5.810000E-8	6.078114E-3
5.815000E-8	6.520097E-3
5.820000E-8	7.078571E-3
5.825000E-8	7.743257E-3
5.830000E-8	8.425075E-3
5.835000E-8	9.089762E-3
5.840000E-8	9.691063E-3
5.845000E-8	1.017587E-2
5.850000E-8	1.060758E-2
5.855000E-8	1.098789E-2
5.860000E-8	1.120374E-2
5.865000E-8	1.126199E-2
5.870000E-8	1.129282E-2
5.875000E-8	1.131852E-2
5.880000E-8	1.132708E-2
5.885000E-8	1.139561E-2
5.890000E-8	1.151210E-2
5.895000E-8	1.161489E-2
5.900000E-8	1.169712E-2
5.905000E-8	1.177078E-2
5.910000E-8	1.179648E-2
5.915000E-8	1.169883E-2
5.920000E-8	1.146756E-2
5.925000E-8	1.109581E-2
5.930000E-8	1.062128E-2
5.935000E-8	1.009707E-2
5.940000E-8	9.523179E-3
5.945000E-8	8.920164E-3
5.950000E-8	8.291452E-3
5.955000E-8	7.678159E-3
5.960000E-8	7.099128E-3
5.965000E-8	6.578342E-3
5.970000E-8	6.204884E-3
5.975000E-8	5.994172E-3
5.980000E-8	5.870828E-3
5.985000E-8	5.816008E-3
5.990000E-8	5.906803E-3
5.995000E-8	6.110663E-3
6.000000E-8	6.309384E-3
6.005000E-8	6.499539E-3
6.010000E-8	6.775350E-3
6.015000E-8	7.136816E-3
6.020000E-8	7.488004E-3
6.025000E-8	7.811782E-3
6.030000E-8	8.138986E-3
6.035000E-8	8.486747E-3
6.040000E-8	8.861918E-3
6.045000E-8	9.259360E-3
6.050000E-8	9.636244E-3
6.055000E-8	9.982292E-3
6.060000E-8	1.032491E-2
6.065000E-8	1.070009E-2
6.070000E-8	1.107868E-2
6.075000E-8	1.140246E-2
6.080000E-8	1.166285E-2
6.085000E-8	1.193181E-2
6.090000E-8	1.221276E-2
6.095000E-8	1.246630E-2
6.100000E-8	1.263761E-2
6.105000E-8	1.269928E-2
6.110000E-8	1.267701E-2
6.115000E-8	1.257080E-2
6.120000E-8	1.232069E-2
6.125000E-8	1.190783E-2
6.130000E-8	1.138362E-2
6.135000E-8	1.076347E-2
6.140000E-8	1.000285E-2
6.145000E-8	9.146294E-3
6.150000E-8	8.267469E-3
6.155000E-8	7.368086E-3
6.160000E-8	6.533802E-3
6.165000E-8	5.886246E-3
6.170000E-8	5.380879E-3
6.175000E-8	4.962880E-3
6.180000E-8	4.736749E-3
6.185000E-8	4.771011E-3
6.190000E-8	4.983437E-3
6.195000E-8	5.372313E-3
6.200000E-8	5.961623E-3
6.205000E-8	6.687981E-3
6.210000E-8	7.453742E-3
6.215000E-8	8.267469E-3
6.220000E-8	9.118885E-3
6.225000E-8	9.968587E-3
6.230000E-8	1.079431E-2
6.235000E-8	1.157377E-2
6.240000E-8	1.224531E-2
6.245000E-8	1.281235E-2
6.250000E-8	1.325776E-2
6.255000E-8	1.354385E-2
6.260000E-8	1.368090E-2
6.265000E-8	1.373058E-2
6.270000E-8	1.369118E-2
6.275000E-8	1.352158E-2
6.280000E-8	1.320979E-2
6.285000E-8	1.281064E-2
6.290000E-8	1.228985E-2
6.295000E-8	1.164572E-2
6.300000E-8	1.095534E-2
6.305000E-8	1.025810E-2
6.310000E-8	9.526605E-3
6.315000E-8	8.788254E-3
6.320000E-8	8.135559E-3
6.325000E-8	7.597643E-3
6.330000E-8	7.114546E-3
6.335000E-8	6.636588E-3
6.340000E-8	6.174048E-3
6.345000E-8	5.793738E-3
6.350000E-8	5.481952E-3
6.355000E-8	5.250682E-3
6.360000E-8	5.115346E-3
6.365000E-8	5.117060E-3
6.370000E-8	5.269526E-3
6.375000E-8	5.605296E-3
6.380000E-8	6.127795E-3
6.385000E-8	6.799334E-3
6.390000E-8	7.578799E-3
6.395000E-8	8.421649E-3
6.400000E-8	9.262786E-3
6.405000E-8	1.005082E-2
6.410000E-8	1.076861E-2
6.415000E-8	1.139218E-2
6.420000E-8	1.183930E-2
6.425000E-8	1.203974E-2
6.430000E-8	1.201404E-2
6.435000E-8	1.184273E-2
6.440000E-8	1.157377E-2
6.445000E-8	1.120203E-2
6.450000E-8	1.073263E-2
6.455000E-8	1.024611E-2
6.460000E-8	9.840104E-3
6.465000E-8	9.566006E-3
6.470000E-8	9.434097E-3
6.475000E-8	9.410113E-3
6.480000E-8	9.442662E-3
6.485000E-8	9.482064E-3
6.490000E-8	9.511187E-3
6.495000E-8	9.492343E-3
6.500000E-8	9.380990E-3
6.505000E-8	9.204540E-3
6.510000E-8	8.992114E-3
6.515000E-8	8.712878E-3
6.520000E-8	8.383960E-3
6.525000E-8	8.029347E-3
6.530000E-8	7.650749E-3
6.535000E-8	7.268726E-3
6.540000E-8	6.958653E-3
6.545000E-8	6.723957E-3
6.550000E-8	6.537228E-3
6.555000E-8	6.443007E-3
6.560000E-8	6.472130E-3
6.565000E-8	6.552646E-3
6.570000E-8	6.640014E-3
6.575000E-8	6.763358E-3
6.580000E-8	6.941522E-3
6.585000E-8	7.188210E-3
6.590000E-8	7.539397E-3
6.595000E-8	7.964248E-3
6.600000E-8	8.419936E-3
6.605000E-8	8.897893E-3
6.610000E-8	9.458080E-3
6.615000E-8	1.007651E-2
6.620000E-8	1.068809E-2
6.625000E-8	1.123800E-2
6.630000E-8	1.173823E-2
6.635000E-8	1.221276E-2
6.640000E-8	1.261534E-2
6.645000E-8	1.282777E-2
6.650000E-8	1.285689E-2
6.655000E-8	1.274554E-2
6.660000E-8	1.246459E-2
6.665000E-8	1.199006E-2
6.670000E-8	1.140589E-2
6.675000E-8	1.074805E-2
6.680000E-8	9.982292E-3
6.685000E-8	9.094901E-3
6.690000E-8	8.150977E-3
6.695000E-8	7.222472E-3
6.700000E-8	6.371056E-3
6.705000E-8	5.675533E-3
6.710000E-8	5.132478E-3
6.715000E-8	4.690495E-3
6.720000E-8	4.373570E-3
6.725000E-8	4.236521E-3
6.730000E-8	4.263931E-3
6.735000E-8	4.418111E-3
6.740000E-8	4.719618E-3
6.745000E-8	5.163314E-3
6.750000E-8	5.680673E-3
6.755000E-8	6.227155E-3
6.760000E-8	6.831883E-3
6.765000E-8	7.486291E-3
6.770000E-8	8.132133E-3
6.775000E-8	8.784828E-3
6.780000E-8	9.446089E-3
6.785000E-8	1.010221E-2
6.790000E-8	1.077718E-2
6.795000E-8	1.145214E-2
6.800000E-8	1.200890E-2
6.805000E-8	1.242176E-2
6.810000E-8	1.272498E-2
6.815000E-8	1.288087E-2
6.820000E-8	1.288087E-2
6.825000E-8	1.274896E-2
6.830000E-8	1.252455E-2
6.835000E-8	1.218021E-2
6.840000E-8	1.174337E-2
6.845000E-8	1.124657E-2
6.850000E-8	1.065897E-2
6.855000E-8	1.000114E-2
6.860000E-8	9.326171E-3
6.865000E-8	8.661484E-3
6.870000E-8	7.993371E-3
6.875000E-8	7.364660E-3
6.880000E-8	6.782203E-3
6.885000E-8	6.223729E-3
6.890000E-8	5.730353E-3
6.895000E-8	5.339764E-3
6.900000E-8	5.019412E-3
6.905000E-8	4.784716E-3
6.910000E-8	4.699061E-3
6.915000E-8	4.781290E-3
6.920000E-8	5.007421E-3
6.925000E-8	5.382592E-3
6.930000E-8	5.906803E-3
6.935000E-8	6.547506E-3
6.940000E-8	7.263586E-3
6.945000E-8	8.013929E-3
6.950000E-8	8.750566E-3
6.955000E-8	9.482064E-3
6.960000E-8	1.020842E-2
6.965000E-8	1.084056E-2
6.970000E-8	1.129453E-2
6.975000E-8	1.154979E-2
6.980000E-8	1.163030E-2
6.985000E-8	1.158062E-2
6.990000E-8	1.143501E-2
6.995000E-8	1.118832E-2
7.000000E-8	1.083371E-2
7.005000E-8	1.046368E-2
7.010000E-8	1.011420E-2
7.015000E-8	9.751022E-3
7.020000E-8	9.387843E-3
7.025000E-8	9.088049E-3
7.030000E-8	8.865344E-3
7.035000E-8	8.695746E-3
7.040000E-8	8.616943E-3
7.045000E-8	8.587820E-3
7.050000E-8	8.586107E-3
7.055000E-8	8.622083E-3
7.060000E-8	8.642640E-3
7.065000E-8	8.575829E-3
7.070000E-8	8.418223E-3
7.075000E-8	8.209223E-3
7.080000E-8	7.894011E-3
7.085000E-8	7.441750E-3
7.090000E-8	6.932956E-3
7.095000E-8	6.446433E-3
7.100000E-8	6.021582E-3
7.105000E-8	5.653263E-3
7.110000E-8	5.334625E-3
7.115000E-8	5.101642E-3
7.120000E-8	5.015986E-3
7.125000E-8	5.050248E-3
7.130000E-8	5.158174E-3
7.135000E-8	5.360321E-3
7.140000E-8	5.697804E-3
7.145000E-8	6.184327E-3
7.150000E-8	6.759932E-3
7.155000E-8	7.402348E-3
7.160000E-8	8.067035E-3
7.165000E-8	8.774549E-3
7.170000E-8	9.497482E-3
7.175000E-8	1.017759E-2
7.180000E-8	1.079602E-2
7.185000E-8	1.136135E-2
7.190000E-8	1.180847E-2
7.195000E-8	1.210141E-2
7.200000E-8	1.224188E-2
7.205000E-8	1.223161E-2
7.210000E-8	1.207914E-2
7.215000E-8	1.181703E-2
7.220000E-8	1.146756E-2
7.225000E-8	1.103928E-2
7.230000E-8	1.053563E-2
7.235000E-8	9.982292E-3
7.240000E-8	9.370712E-3
7.245000E-8	8.700886E-3
7.250000E-8	8.019068E-3
7.255000E-8	7.356094E-3
7.260000E-8	6.693121E-3
7.265000E-8	6.096959E-3
7.270000E-8	5.656689E-3
7.275000E-8	5.332911E-3
7.280000E-8	5.045109E-3
7.285000E-8	4.865232E-3
7.290000E-8	4.836110E-3
7.295000E-8	4.894355E-3
7.300000E-8	5.036543E-3
7.305000E-8	5.322633E-3
7.310000E-8	5.696091E-3
7.315000E-8	6.079827E-3
7.320000E-8	6.514957E-3
7.325000E-8	6.994628E-3
7.330000E-8	7.464020E-3
7.335000E-8	7.972814E-3
7.340000E-8	8.544993E-3
7.345000E-8	9.096614E-3
7.350000E-8	9.598555E-3
7.355000E-8	1.013990E-2
7.360000E-8	1.072578E-2
7.365000E-8	1.129453E-2
7.370000E-8	1.181703E-2
7.375000E-8	1.222475E-2
7.380000E-8	1.246459E-2
7.385000E-8	1.255538E-2
7.390000E-8	1.248515E-2
7.395000E-8	1.219049E-2
7.400000E-8	1.168684E-2
7.405000E-8	1.102386E-2
7.410000E-8	1.018273E-2
7.415000E-8	9.207966E-3
7.420000E-8	8.245198E-3
7.425000E-8	7.388643E-3
7.430000E-8	6.633162E-3
7.435000E-8	5.995885E-3
7.440000E-8	5.548763E-3
7.445000E-8	5.341477E-3
7.450000E-8	5.360321E-3
7.455000E-8	5.529919E-3
7.460000E-8	5.745771E-3
7.465000E-8	5.965049E-3
7.470000E-8	6.220302E-3
7.475000E-8	6.544080E-3
7.480000E-8	6.864432E-3
7.485000E-8	7.165939E-3
7.490000E-8	7.462307E-3
7.495000E-8	7.738118E-3
7.500000E-8	7.960822E-3
7.505000E-8	8.168109E-3
7.510000E-8	8.389100E-3
7.515000E-8	8.642640E-3
7.520000E-8	8.949287E-3
7.525000E-8	9.290196E-3
7.530000E-8	9.581424E-3
7.535000E-8	9.828112E-3
7.540000E-8	1.007480E-2
7.545000E-8	1.032491E-2
7.550000E-8	1.053391E-2
7.555000E-8	1.068809E-2
7.560000E-8	1.076176E-2
7.565000E-8	1.075319E-2
7.570000E-8	1.065897E-2
7.575000E-8	1.050479E-2
7.580000E-8	1.030093E-2
7.585000E-8	1.014161E-2
7.590000E-8	1.000799E-2
7.595000E-8	9.877792E-3
7.600000E-8	9.785284E-3
7.605000E-8	9.715047E-3
7.610000E-8	9.617400E-3
7.615000E-8	9.499195E-3
7.620000E-8	9.391269E-3
7.625000E-8	9.240515E-3
7.630000E-8	9.007532E-3
7.635000E-8	8.735148E-3
7.640000E-8	8.404518E-3
7.645000E-8	7.940265E-3
7.650000E-8	7.373225E-3
7.655000E-8	6.823317E-3
7.660000E-8	6.364204E-3
7.665000E-8	5.980467E-3
7.670000E-8	5.641271E-3
7.675000E-8	5.392870E-3
7.680000E-8	5.308928E-3
7.685000E-8	5.379165E-3
7.690000E-8	5.531632E-3
7.695000E-8	5.814295E-3
7.700000E-8	6.300819E-3
7.705000E-8	6.936382E-3
7.710000E-8	7.649036E-3
7.715000E-8	8.407944E-3
7.720000E-8	9.192548E-3
7.725000E-8	9.965161E-3
7.730000E-8	1.069666E-2
7.735000E-8	1.133394E-2
7.740000E-8	1.179819E-2
7.745000E-8	1.209627E-2
7.750000E-8	1.227272E-2
7.755000E-8	1.234124E-2
7.760000E-8	1.227786E-2
7.765000E-8	1.208085E-2
7.770000E-8	1.175536E-2
7.775000E-8	1.130310E-2
7.780000E-8	1.070865E-2
7.785000E-8	9.972013E-3
7.790000E-8	9.187409E-3
7.795000E-8	8.435354E-3
7.800000E-8	7.736405E-3
7.805000E-8	7.076857E-3
7.810000E-8	6.490974E-3
7.815000E-8	5.982180E-3
7.820000E-8	5.553903E-3
7.825000E-8	5.235264E-3
7.830000E-8	5.034830E-3
7.835000E-8	4.920052E-3
7.840000E-8	4.901208E-3
7.845000E-8	4.980011E-3
7.850000E-8	5.072519E-3
7.855000E-8	5.163314E-3
7.860000E-8	5.300362E-3
7.865000E-8	5.511075E-3
7.870000E-8	5.768041E-3
7.875000E-8	6.117516E-3
7.880000E-8	6.535515E-3
7.885000E-8	6.992915E-3
7.890000E-8	7.484578E-3
7.895000E-8	8.048191E-3
7.900000E-8	8.616943E-3
7.905000E-8	9.137729E-3
7.910000E-8	9.608834E-3
7.915000E-8	9.989144E-3
7.920000E-8	1.022041E-2
7.925000E-8	1.036089E-2
7.930000E-8	1.039001E-2
7.935000E-8	1.023069E-2
7.940000E-8	9.903489E-3
7.945000E-8	9.555728E-3
7.950000E-8	9.171991E-3
7.955000E-8	8.707738E-3
7.960000E-8	8.212649E-3
7.965000E-8	7.739831E-3
7.970000E-8	7.237890E-3
7.975000E-8	6.691408E-3
7.980000E-8	6.187753E-3
7.985000E-8	5.721787E-3
7.990000E-8	5.262674E-3
7.995000E-8	4.812126E-3
8.000000E-8	4.426676E-3
8.005000E-8	4.123456E-3
8.010000E-8	3.883620E-3
8.015000E-8	3.729440E-3
8.020000E-8	3.739719E-3
8.025000E-8	3.905891E-3
8.030000E-8	4.186841E-3
8.035000E-8	4.514045E-3
8.040000E-8	4.916626E-3
8.045000E-8	5.404862E-3
8.050000E-8	5.923934E-3
8.055000E-8	6.424163E-3
8.060000E-8	6.900407E-3
8.065000E-8	7.318406E-3
8.070000E-8	7.681585E-3
8.075000E-8	8.022494E-3
8.080000E-8	8.356551E-3
8.085000E-8	8.649492E-3
8.090000E-8	8.920164E-3
8.095000E-8	9.195975E-3
8.100000E-8	9.461507E-3
8.105000E-8	9.727039E-3
8.110000E-8	1.001313E-2
8.115000E-8	1.028380E-2
8.120000E-8	1.050993E-2
8.125000E-8	1.070009E-2
8.130000E-8	1.078231E-2
8.135000E-8	1.068295E-2
8.140000E-8	1.044141E-2
8.145000E-8	1.013133E-2
8.150000E-8	9.764727E-3
8.155000E-8	9.309040E-3
8.160000E-8	8.788254E-3
8.165000E-8	8.246912E-3
8.170000E-8	7.731265E-3
8.175000E-8	7.177931E-3
8.180000E-8	6.561211E-3
8.185000E-8	5.947918E-3
8.190000E-8	5.416854E-3
8.195000E-8	4.976585E-3
8.200000E-8	4.585995E-3
8.205000E-8	4.257078E-3
8.210000E-8	4.022382E-3
8.215000E-8	3.890473E-3
8.220000E-8	3.859637E-3
8.225000E-8	3.967563E-3
8.230000E-8	4.263931E-3
8.235000E-8	4.740175E-3
8.240000E-8	5.350043E-3
8.245000E-8	6.069549E-3
8.250000E-8	6.864432E-3
8.255000E-8	7.643897E-3
8.260000E-8	8.334280E-3
8.265000E-8	8.980123E-3
8.270000E-8	9.593416E-3
8.275000E-8	1.010050E-2
8.280000E-8	1.048252E-2
8.285000E-8	1.076690E-2
8.290000E-8	1.098104E-2
8.295000E-8	1.112151E-2
8.300000E-8	1.118318E-2
8.305000E-8	1.116434E-2
8.310000E-8	1.109239E-2
8.315000E-8	1.096048E-2
8.320000E-8	1.072407E-2
8.325000E-8	1.034718E-2
8.330000E-8	9.915481E-3
8.335000E-8	9.464933E-3
8.340000E-8	8.920164E-3
8.345000E-8	8.276034E-3
8.350000E-8	7.592504E-3
8.355000E-8	6.866145E-3
8.360000E-8	6.115803E-3
8.365000E-8	5.416854E-3
8.370000E-8	4.796708E-3
8.375000E-8	4.258791E-3
8.380000E-8	3.847645E-3
8.385000E-8	3.602670E-3
8.390000E-8	3.515302E-3
8.395000E-8	3.612949E-3
8.400000E-8	3.900751E-3
8.405000E-8	4.308472E-3
8.410000E-8	4.772724E-3
8.415000E-8	5.310641E-3
8.420000E-8	5.937639E-3
8.425000E-8	6.559498E-3
8.430000E-8	7.092275E-3
8.435000E-8	7.515414E-3
8.440000E-8	7.880306E-3
8.445000E-8	8.210936E-3
8.450000E-8	8.473042E-3
8.455000E-8	8.666624E-3
8.460000E-8	8.813951E-3
8.465000E-8	8.945860E-3
8.470000E-8	9.052073E-3
8.475000E-8	9.134303E-3
8.480000E-8	9.168565E-3
8.485000E-8	9.168565E-3
8.490000E-8	9.115458E-3
8.495000E-8	9.029803E-3
8.500000E-8	8.901320E-3
8.505000E-8	8.682042E-3
8.510000E-8	8.300018E-3
8.515000E-8	7.811782E-3
8.520000E-8	7.301275E-3
8.525000E-8	6.758219E-3
8.530000E-8	6.170622E-3
8.535000E-8	5.543624E-3
8.540000E-8	4.947462E-3
8.545000E-8	4.472930E-3
8.550000E-8	4.162857E-3
8.555000E-8	3.970989E-3
8.560000E-8	3.899038E-3
8.565000E-8	3.993259E-3
8.570000E-8	4.181702E-3
8.575000E-8	4.368431E-3
8.580000E-8	4.568864E-3
8.585000E-8	4.771011E-3
8.590000E-8	4.892642E-3
8.595000E-8	4.962880E-3
8.600000E-8	5.053675E-3
8.605000E-8	5.105068E-3
8.610000E-8	5.091363E-3
8.615000E-8	5.110207E-3
8.620000E-8	5.243830E-3
8.625000E-8	5.457968E-3
8.630000E-8	5.771468E-3
8.635000E-8	6.203171E-3
8.640000E-8	6.698260E-3
8.645000E-8	7.248168E-3
8.650000E-8	7.868314E-3
8.655000E-8	8.491886E-3
8.660000E-8	9.034942E-3
8.665000E-8	9.473498E-3
8.670000E-8	9.814407E-3
8.675000E-8	1.003369E-2
8.680000E-8	1.015703E-2
8.685000E-8	1.023069E-2
8.690000E-8	1.024611E-2
8.695000E-8	1.015874E-2
8.700000E-8	9.958308E-3
8.705000E-8	9.687637E-3
8.710000E-8	9.368999E-3
8.715000E-8	9.005819E-3
8.720000E-8	8.584394E-3
8.725000E-8	8.138986E-3
8.730000E-8	7.661028E-3
8.735000E-8	7.174505E-3
8.740000E-8	6.681129E-3
8.745000E-8	6.175762E-3
8.750000E-8	5.660115E-3
8.755000E-8	5.197576E-3
8.760000E-8	4.856667E-3
8.765000E-8	4.632249E-3
8.770000E-8	4.490061E-3
8.775000E-8	4.472930E-3
8.780000E-8	4.625397E-3
8.785000E-8	4.875511E-3
8.790000E-8	5.115346E-3
8.795000E-8	5.368887E-3
8.800000E-8	5.750910E-3
8.805000E-8	6.251138E-3
8.810000E-8	6.780489E-3
8.815000E-8	7.326972E-3
8.820000E-8	7.887158E-3
8.825000E-8	8.421649E-3
8.830000E-8	8.903033E-3
8.835000E-8	9.326171E-3
8.840000E-8	9.649949E-3
8.845000E-8	9.840104E-3
8.850000E-8	9.944604E-3
8.855000E-8	9.961735E-3
8.860000E-8	9.848669E-3
8.865000E-8	9.656801E-3
8.870000E-8	9.461507E-3
8.875000E-8	9.214819E-3
8.880000E-8	8.851639E-3
8.885000E-8	8.435354E-3
8.890000E-8	8.001937E-3
8.895000E-8	7.530832E-3
8.900000E-8	7.068292E-3
8.905000E-8	6.652006E-3
8.910000E-8	6.213450E-3
8.915000E-8	5.735492E-3
8.920000E-8	5.307215E-3
8.925000E-8	4.959453E-3
8.930000E-8	4.647667E-3
8.935000E-8	4.334168E-3
8.940000E-8	4.058358E-3
8.945000E-8	3.821948E-3
8.950000E-8	3.624941E-3
8.955000E-8	3.515302E-3
8.960000E-8	3.510162E-3
8.965000E-8	3.599244E-3
8.970000E-8	3.765416E-3
8.975000E-8	4.030948E-3
8.980000E-8	4.418111E-3
8.985000E-8	4.933757E-3
8.990000E-8	5.541911E-3
8.995000E-8	6.201458E-3
9.000000E-8	6.895268E-3
9.005000E-8	7.585651E-3
9.010000E-8	8.162969E-3
9.015000E-8	8.577542E-3
9.020000E-8	8.872197E-3
9.025000E-8	9.060639E-3
9.030000E-8	9.089762E-3
9.035000E-8	8.956139E-3
9.040000E-8	8.733435E-3
9.045000E-8	8.491886E-3
9.050000E-8	8.198945E-3
9.055000E-8	7.858036E-3
9.060000E-8	7.520553E-3
9.065000E-8	7.212193E-3
9.070000E-8	6.905546E-3
9.075000E-8	6.607465E-3
9.080000E-8	6.365917E-3
9.085000E-8	6.172335E-3
9.090000E-8	6.006164E-3
9.095000E-8	5.848558E-3
9.100000E-8	5.713222E-3
9.105000E-8	5.613862E-3
9.110000E-8	5.550476E-3
9.115000E-8	5.524780E-3
9.120000E-8	5.543624E-3
9.125000E-8	5.557329E-3
9.130000E-8	5.507649E-3
9.135000E-8	5.418567E-3
9.140000E-8	5.348329E-3
9.145000E-8	5.298649E-3
9.150000E-8	5.245543E-3
9.155000E-8	5.236977E-3
9.160000E-8	5.296936E-3
9.165000E-8	5.408288E-3
9.170000E-8	5.603583E-3
9.175000E-8	5.905090E-3
9.180000E-8	6.288827E-3
9.185000E-8	6.710252E-3
9.190000E-8	7.159087E-3
9.195000E-8	7.638758E-3
9.200000E-8	8.116715E-3
9.205000E-8	8.560411E-3
9.210000E-8	8.957852E-3
9.215000E-8	9.291909E-3
9.220000E-8	9.511187E-3
9.225000E-8	9.622539E-3
9.230000E-8	9.689350E-3
9.235000E-8	9.692776E-3
9.240000E-8	9.607121E-3
9.245000E-8	9.447802E-3
9.250000E-8	9.225097E-3
9.255000E-8	8.921877E-3
9.260000E-8	8.562124E-3
9.265000E-8	8.145838E-3
9.270000E-8	7.611348E-3
9.275000E-8	7.035743E-3
9.280000E-8	6.494400E-3
9.285000E-8	5.913656E-3
9.290000E-8	5.286657E-3
9.295000E-8	4.755593E-3
9.300000E-8	4.313611E-3
9.305000E-8	3.921309E-3
9.310000E-8	3.588965E-3
9.315000E-8	3.379966E-3
9.320000E-8	3.244630E-3
9.325000E-8	3.196663E-3
9.330000E-8	3.266901E-3
9.335000E-8	3.391958E-3
9.340000E-8	3.520441E-3
9.345000E-8	3.698605E-3
9.350000E-8	3.943579E-3
9.355000E-8	4.212538E-3
9.360000E-8	4.531176E-3
9.365000E-8	4.921765E-3
9.370000E-8	5.375739E-3
9.375000E-8	5.851984E-3
9.380000E-8	6.335081E-3
9.385000E-8	6.826743E-3
9.390000E-8	7.301275E-3
9.395000E-8	7.719274E-3
9.400000E-8	8.056756E-3
9.405000E-8	8.308584E-3
9.410000E-8	8.486747E-3
9.415000E-8	8.586107E-3
9.420000E-8	8.601525E-3
9.425000E-8	8.538140E-3
9.430000E-8	8.402805E-3
9.435000E-8	8.195518E-3
9.440000E-8	7.906003E-3
9.445000E-8	7.551389E-3
9.450000E-8	7.176218E-3
9.455000E-8	6.795907E-3
9.460000E-8	6.376195E-3
9.465000E-8	5.911943E-3
9.470000E-8	5.432272E-3
9.475000E-8	4.961167E-3
9.480000E-8	4.526037E-3
9.485000E-8	4.164570E-3
9.490000E-8	3.864776E-3
9.495000E-8	3.624941E-3
9.500000E-8	3.467335E-3
9.505000E-8	3.412515E-3
9.510000E-8	3.439925E-3
9.515000E-8	3.558129E-3
9.520000E-8	3.772268E-3
9.525000E-8	4.082341E-3
9.530000E-8	4.455799E-3
9.535000E-8	4.865232E-3
9.540000E-8	5.284944E-3
9.545000E-8	5.704656E-3
9.550000E-8	6.078114E-3
9.555000E-8	6.403605E-3
9.560000E-8	6.698260E-3
9.565000E-8	6.970645E-3
9.570000E-8	7.177931E-3
9.575000E-8	7.330398E-3
9.580000E-8	7.481151E-3
9.585000E-8	7.642184E-3
9.590000E-8	7.753536E-3
9.595000E-8	7.789511E-3
9.600000E-8	7.738118E-3
9.605000E-8	7.601069E-3
9.610000E-8	7.383504E-3
9.615000E-8	7.090562E-3
9.620000E-8	6.754793E-3
9.625000E-8	6.427589E-3
9.630000E-8	6.110663E-3
9.635000E-8	5.747484E-3
9.640000E-8	5.348329E-3
9.645000E-8	4.974871E-3
9.650000E-8	4.657946E-3
9.655000E-8	4.397553E-3
9.660000E-8	4.226242E-3
9.665000E-8	4.156005E-3
9.670000E-8	4.166284E-3
9.675000E-8	4.226242E-3
9.680000E-8	4.303332E-3
9.685000E-8	4.365004E-3
9.690000E-8	4.378709E-3
9.695000E-8	4.407832E-3
9.700000E-8	4.502053E-3
9.705000E-8	4.630536E-3
9.710000E-8	4.760733E-3
9.715000E-8	4.933757E-3
9.720000E-8	5.175305E-3
9.725000E-8	5.442550E-3
9.730000E-8	5.752623E-3
9.735000E-8	6.120942E-3
9.740000E-8	6.513244E-3
9.745000E-8	6.915825E-3
9.750000E-8	7.321832E-3
9.755000E-8	7.698716E-3
9.760000E-8	8.000224E-3
9.765000E-8	8.240059E-3
9.770000E-8	8.395952E-3
9.775000E-8	8.449059E-3
9.780000E-8	8.406231E-3
9.785000E-8	8.281174E-3
9.790000E-8	8.077314E-3
9.795000E-8	7.846044E-3
9.800000E-8	7.583938E-3
9.805000E-8	7.256734E-3
9.810000E-8	6.920964E-3
9.815000E-8	6.617744E-3
9.820000E-8	6.299106E-3
9.825000E-8	5.985606E-3
9.830000E-8	5.721787E-3
9.835000E-8	5.442550E-3
9.840000E-8	5.094789E-3
9.845000E-8	4.769298E-3
9.850000E-8	4.488348E-3
9.855000E-8	4.174849E-3
9.860000E-8	3.854498E-3
9.865000E-8	3.619801E-3
9.870000E-8	3.467335E-3
9.875000E-8	3.364548E-3
9.880000E-8	3.290884E-3
9.885000E-8	3.248057E-3
9.890000E-8	3.249770E-3
9.895000E-8	3.337138E-3
9.900000E-8	3.534146E-3
9.905000E-8	3.859637E-3
9.910000E-8	4.299906E-3
9.915000E-8	4.817265E-3
9.920000E-8	5.389444E-3
9.925000E-8	6.009590E-3
9.930000E-8	6.636588E-3
9.935000E-8	7.205341E-3
9.940000E-8	7.690151E-3
9.945000E-8	8.087592E-3
9.950000E-8	8.368542E-3
9.955000E-8	8.517583E-3
9.960000E-8	8.538140E-3
9.965000E-8	8.447345E-3
9.970000E-8	8.286313E-3
9.975000E-8	8.092732E-3
9.980000E-8	7.880306E-3
9.985000E-8	7.657602E-3
9.990000E-8	7.433184E-3
9.995000E-8	7.157374E-3
1.000000E-7	6.830170E-3
1.000500E-7	6.511531E-3
1.001000E-7	6.220302E-3
1.001500E-7	5.889672E-3
1.002000E-7	5.553903E-3
1.002500E-7	5.310641E-3
1.003000E-7	5.077658E-3
1.003500E-7	4.793282E-3
1.004000E-7	4.550020E-3
1.004500E-7	4.406119E-3
1.005000E-7	4.322177E-3
1.005500E-7	4.274209E-3
1.006000E-7	4.279349E-3
1.006500E-7	4.344447E-3
1.007000E-7	4.466078E-3
1.007500E-7	4.630536E-3
1.008000E-7	4.798421E-3
1.008500E-7	4.983437E-3
1.009000E-7	5.197576E-3
1.009500E-7	5.382592E-3
1.010000E-7	5.553903E-3
1.010500E-7	5.759476E-3
1.011000E-7	5.954770E-3
1.011500E-7	6.108950E-3
1.012000E-7	6.280261E-3
1.012500E-7	6.478982E-3
1.013000E-7	6.645154E-3
1.013500E-7	6.835309E-3
1.014000E-7	7.104267E-3
1.014500E-7	7.335537E-3
1.015000E-7	7.488004E-3
1.015500E-7	7.613061E-3
1.016000E-7	7.631905E-3
1.016500E-7	7.458881E-3
1.017000E-7	7.200201E-3
1.017500E-7	6.984350E-3
1.018000E-7	6.742801E-3
1.018500E-7	6.439581E-3
1.019000E-7	6.138073E-3
1.019500E-7	5.819435E-3
1.020000E-7	5.451116E-3
1.020500E-7	5.111920E-3
1.021000E-7	4.875511E-3
1.021500E-7	4.675077E-3
1.022000E-7	4.490061E-3
1.022500E-7	4.428389E-3
1.023000E-7	4.503766E-3
1.023500E-7	4.596274E-3
1.024000E-7	4.651094E-3
1.024500E-7	4.700774E-3
1.025000E-7	4.767585E-3
1.025500E-7	4.830970E-3
1.026000E-7	4.870372E-3
1.026500E-7	4.902921E-3
1.027000E-7	4.968019E-3
1.027500E-7	5.065666E-3
1.028000E-7	5.194150E-3
1.028500E-7	5.404862E-3
1.029000E-7	5.701230E-3
1.029500E-7	6.026721E-3
1.030000E-7	6.372769E-3
1.030500E-7	6.768498E-3
1.031000E-7	7.193349E-3
1.031500E-7	7.616487E-3
1.032000E-7	8.067035E-3
1.032500E-7	8.522722E-3
1.033000E-7	8.884189E-3
1.033500E-7	9.136016E-3
1.034000E-7	9.273064E-3
1.034500E-7	9.243942E-3
1.035000E-7	9.106893E-3
1.035500E-7	8.918451E-3
1.036000E-7	8.611804E-3
1.036500E-7	8.198945E-3
1.037000E-7	7.808355E-3
1.037500E-7	7.467447E-3
1.038000E-7	7.078571E-3
1.038500E-7	6.657145E-3
1.039000E-7	6.259704E-3
1.039500E-7	5.855410E-3
1.040000E-7	5.421993E-3
1.040500E-7	4.992003E-3
1.041000E-7	4.577430E-3
1.041500E-7	4.203972E-3
1.042000E-7	3.905891E-3
1.042500E-7	3.666055E-3
1.043000E-7	3.455343E-3
1.043500E-7	3.285745E-3
1.044000E-7	3.169254E-3
1.044500E-7	3.126426E-3
1.045000E-7	3.188098E-3
1.045500E-7	3.355983E-3
1.046000E-7	3.590679E-3
1.046500E-7	3.931587E-3
1.047000E-7	4.370144E-3
1.047500E-7	4.830970E-3
1.048000E-7	5.284944E-3
1.048500E-7	5.747484E-3
1.049000E-7	6.232294E-3
1.049500E-7	6.687981E-3
1.050000E-7	7.116259E-3
1.050500E-7	7.477725E-3
1.051000E-7	7.722700E-3
1.051500E-7	7.844331E-3
1.052000E-7	7.861462E-3
1.052500E-7	7.768954E-3
1.053000E-7	7.599356E-3
1.053500E-7	7.419479E-3
1.054000E-7	7.219046E-3
1.054500E-7	6.970645E-3
1.055000E-7	6.672563E-3
1.055500E-7	6.341933E-3
1.056000E-7	5.975328E-3
1.056500E-7	5.579599E-3
1.057000E-7	5.161600E-3
1.057500E-7	4.743602E-3
1.058000E-7	4.387275E-3
1.058500E-7	4.132021E-3
1.059000E-7	3.948719E-3
1.059500E-7	3.799678E-3
1.060000E-7	3.712309E-3
1.060500E-7	3.734580E-3
1.061000E-7	3.854498E-3
1.061500E-7	4.037800E-3
1.062000E-7	4.269070E-3
1.062500E-7	4.553446E-3
1.063000E-7	4.870372E-3
1.063500E-7	5.202715E-3
1.064000E-7	5.511075E-3
1.064500E-7	5.807443E-3
1.065000E-7	6.095245E-3
1.065500E-7	6.336794E-3
1.066000E-7	6.506392E-3
1.066500E-7	6.633162E-3
1.067000E-7	6.797621E-3
1.067500E-7	6.939809E-3
1.068000E-7	6.979210E-3
1.068500E-7	6.946661E-3
1.069000E-7	6.932956E-3
1.069500E-7	6.932956E-3
1.070000E-7	6.900407E-3
1.070500E-7	6.835309E-3
1.071000E-7	6.792481E-3
1.071500E-7	6.756506E-3
1.072000E-7	6.674277E-3
1.072500E-7	6.520097E-3
1.073000E-7	6.347073E-3
1.073500E-7	6.177475E-3
1.074000E-7	5.961623E-3
1.074500E-7	5.713222E-3
1.075000E-7	5.541911E-3
1.075500E-7	5.451116E-3
1.076000E-7	5.348329E-3
1.076500E-7	5.185584E-3
1.077000E-7	5.051961E-3
1.077500E-7	4.990289E-3
1.078000E-7	4.937183E-3
1.078500E-7	4.848101E-3
1.079000E-7	4.769298E-3
1.079500E-7	4.719618E-3
1.080000E-7	4.640815E-3
1.080500E-7	4.508906E-3
1.081000E-7	4.378709E-3
1.081500E-7	4.262218E-3
1.082000E-7	4.144013E-3
1.082500E-7	4.114890E-3
1.083000E-7	4.217677E-3
1.083500E-7	4.395840E-3
1.084000E-7	4.594561E-3
1.084500E-7	4.863519E-3
1.085000E-7	5.228412E-3
1.085500E-7	5.668681E-3
1.086000E-7	6.114090E-3
1.086500E-7	6.549220E-3
1.087000E-7	6.979210E-3
1.087500E-7	7.374939E-3
1.088000E-7	7.700429E-3
1.088500E-7	7.974527E-3
1.089000E-7	8.173248E-3
1.089500E-7	8.258903E-3
1.090000E-7	8.209223E-3
1.090500E-7	8.072174E-3
1.091000E-7	7.825487E-3
1.091500E-7	7.493143E-3
1.092000E-7	7.123111E-3
1.092500E-7	6.694834E-3
1.093000E-7	6.150065E-3
1.093500E-7	5.572747E-3
1.094000E-7	5.026265E-3
1.094500E-7	4.481496E-3
1.095000E-7	4.008677E-3
1.095500E-7	3.738006E-3
1.096000E-7	3.606097E-3
1.096500E-7	3.498171E-3
1.097000E-7	3.484466E-3
1.097500E-7	3.618088E-3
1.098000E-7	3.828801E-3
1.098500E-7	4.073776E-3
1.099000E-7	4.402693E-3
1.099500E-7	4.772724E-3
1.100000E-7	5.118773E-3
1.100500E-7	5.452829E-3
1.101000E-7	5.786886E-3
1.101500E-7	6.031860E-3
1.102000E-7	6.186040E-3
1.102500E-7	6.309384E-3
1.103000E-7	6.400179E-3
1.103500E-7	6.443007E-3
1.104000E-7	6.489261E-3
1.104500E-7	6.540654E-3
1.105000E-7	6.580056E-3
1.105500E-7	6.617744E-3
1.106000E-7	6.698260E-3
1.106500E-7	6.761645E-3
1.107000E-7	6.777063E-3
1.107500E-7	6.763358E-3
1.108000E-7	6.753080E-3
1.108500E-7	6.759932E-3
1.109000E-7	6.763358E-3
1.109500E-7	6.722244E-3
1.110000E-7	6.609178E-3
1.110500E-7	6.413884E-3
1.111000E-7	6.180901E-3
1.111500E-7	5.911943E-3
1.112000E-7	5.615575E-3
1.112500E-7	5.286657E-3
1.113000E-7	4.932044E-3
1.113500E-7	4.560299E-3
1.114000E-7	4.253652E-3
1.114500E-7	4.073776E-3
1.115000E-7	3.965850E-3
1.115500E-7	3.875055E-3
1.116000E-7	3.880194E-3
1.116500E-7	3.989833E-3
1.117000E-7	4.111464E-3
1.117500E-7	4.200546E-3
1.118000E-7	4.272496E-3
1.118500E-7	4.354726E-3
1.119000E-7	4.455799E-3
1.119500E-7	4.565438E-3
1.120000E-7	4.681930E-3
1.120500E-7	4.830970E-3
1.121000E-7	5.053675E-3
1.121500E-7	5.329485E-3
1.122000E-7	5.675533E-3
1.122500E-7	6.090106E-3
1.123000E-7	6.499539E-3
1.123500E-7	6.840448E-3
1.124000E-7	7.150521E-3
1.124500E-7	7.446889E-3
1.125000E-7	7.664454E-3
1.125500E-7	7.758675E-3
1.126000E-7	7.732979E-3
1.126500E-7	7.565094E-3
1.127000E-7	7.282431E-3
1.127500E-7	6.956940E-3
1.128000E-7	6.628023E-3
1.128500E-7	6.314523E-3
1.129000E-7	6.047278E-3
1.129500E-7	5.812582E-3
1.130000E-7	5.605296E-3
1.130500E-7	5.413428E-3
1.131000E-7	5.233551E-3
1.131500E-7	5.031404E-3
1.132000E-7	4.830970E-3
1.132500E-7	4.683643E-3
1.133000E-7	4.560299E-3
1.133500E-7	4.395840E-3
1.134000E-7	4.209111E-3
1.134500E-7	4.048079E-3
1.135000E-7	3.887047E-3
1.135500E-7	3.719162E-3
1.136000E-7	3.609523E-3
1.136500E-7	3.612949E-3
1.137000E-7	3.719162E-3
1.137500E-7	3.941866E-3
1.138000E-7	4.299906E-3
1.138500E-7	4.728184E-3
1.139000E-7	5.197576E-3
1.139500E-7	5.685812E-3
1.140000E-7	6.127795E-3
1.140500E-7	6.477269E-3
1.141000E-7	6.766785E-3
1.141500E-7	7.032317E-3
1.142000E-7	7.229324E-3
1.142500E-7	7.304701E-3
1.143000E-7	7.294422E-3
1.143500E-7	7.279004E-3
1.144000E-7	7.239603E-3
1.144500E-7	7.114546E-3
1.145000E-7	6.872997E-3
1.145500E-7	6.636588E-3
1.146000E-7	6.412171E-3
1.146500E-7	6.131221E-3
1.147000E-7	5.785173E-3
1.147500E-7	5.432272E-3
1.148000E-7	5.063953E-3
1.148500E-7	4.700774E-3
1.149000E-7	4.383849E-3
1.149500E-7	4.084054E-3
1.150000E-7	3.738006E-3
1.150500E-7	3.376540E-3
1.151000E-7	3.069893E-3
1.151500E-7	2.857467E-3
1.152000E-7	2.686156E-3
1.152500E-7	2.561099E-3
1.153000E-7	2.545681E-3
1.153500E-7	2.645042E-3
1.154000E-7	2.807787E-3
1.154500E-7	3.035631E-3
1.155000E-7	3.359409E-3
1.155500E-7	3.753424E-3
1.156000E-7	4.226242E-3
1.156500E-7	4.803560E-3
1.157000E-7	5.399723E-3
1.157500E-7	5.906803E-3
1.158000E-7	6.321376E-3
1.158500E-7	6.696547E-3
1.159000E-7	7.010046E-3
1.159500E-7	7.236177E-3
1.160000E-7	7.386930E-3
1.160500E-7	7.438324E-3
1.161000E-7	7.386930E-3
1.161500E-7	7.267013E-3
1.162000E-7	7.095702E-3
1.162500E-7	6.900407E-3
1.163000E-7	6.689695E-3
1.163500E-7	6.473843E-3
1.164000E-7	6.305958E-3
1.164500E-7	6.222016E-3
1.165000E-7	6.162057E-3
1.165500E-7	6.052418E-3
1.166000E-7	5.925648E-3
1.166500E-7	5.810869E-3
1.167000E-7	5.718361E-3
1.167500E-7	5.648124E-3
1.168000E-7	5.564181E-3
1.168500E-7	5.413428E-3
1.169000E-7	5.183871E-3
1.169500E-7	4.923478E-3
1.170000E-7	4.654520E-3
1.170500E-7	4.399267E-3
1.171000E-7	4.173136E-3
1.171500E-7	3.996686E-3
1.172000E-7	3.871629E-3
1.172500E-7	3.799678E-3
1.173000E-7	3.809957E-3
1.173500E-7	3.917883E-3
1.174000E-7	4.118316E-3
1.174500E-7	4.412971E-3
1.175000E-7	4.801847E-3
1.175500E-7	5.218133E-3
1.176000E-7	5.637845E-3
1.176500E-7	6.079827E-3
1.177000E-7	6.501252E-3
1.177500E-7	6.814752E-3
1.178000E-7	7.010046E-3
1.178500E-7	7.117972E-3
1.179000E-7	7.083710E-3
1.179500E-7	6.908973E-3
1.180000E-7	6.667424E-3
1.180500E-7	6.377909E-3
1.181000E-7	6.031860E-3
1.181500E-7	5.732066E-3
1.182000E-7	5.541911E-3
1.182500E-7	5.445977E-3
1.183000E-7	5.421993E-3
1.183500E-7	5.502509E-3
1.184000E-7	5.651550E-3
1.184500E-7	5.826287E-3
1.185000E-7	5.980467E-3
1.185500E-7	6.072975E-3
1.186000E-7	6.088393E-3
1.186500E-7	6.021582E-3
1.187000E-7	5.860549E-3
1.187500E-7	5.673820E-3
1.188000E-7	5.478526E-3
1.188500E-7	5.219846E-3
1.189000E-7	4.897782E-3
1.189500E-7	4.565438E-3
1.190000E-7	4.265644E-3
1.190500E-7	4.030948E-3
1.191000E-7	3.909317E-3
1.191500E-7	3.897325E-3
1.192000E-7	3.998399E-3
1.192500E-7	4.217677E-3
1.193000E-7	4.483209E-3
1.193500E-7	4.759020E-3
1.194000E-7	5.075945E-3
1.194500E-7	5.421993E-3
1.195000E-7	5.730353E-3
1.195500E-7	5.985606E-3
1.196000E-7	6.167196E-3
1.196500E-7	6.239147E-3
1.197000E-7	6.240860E-3
1.197500E-7	6.234007E-3
1.198000E-7	6.172335E-3
1.198500E-7	6.052418E-3
1.199000E-7	5.944492E-3
1.199500E-7	5.858836E-3
1.200000E-7	5.749197E-3
1.200500E-7	5.601870E-3
1.201000E-7	5.445977E-3
1.201500E-7	5.300362E-3
1.202000E-7	5.146182E-3
1.202500E-7	4.973158E-3
1.203000E-7	4.779577E-3
1.203500E-7	4.562012E-3
1.204000E-7	4.332455E-3
1.204500E-7	4.096046E-3
1.205000E-7	3.888760E-3
1.205500E-7	3.731154E-3
1.206000E-7	3.590679E-3
1.206500E-7	3.443351E-3
1.207000E-7	3.284032E-3
1.207500E-7	3.155549E-3
1.208000E-7	3.068180E-3
1.208500E-7	2.992803E-3
1.209000E-7	2.902008E-3
1.209500E-7	2.802648E-3
1.210000E-7	2.722132E-3
1.210500E-7	2.669025E-3
1.211000E-7	2.672452E-3
1.211500E-7	2.795796E-3
1.212000E-7	3.013361E-3
1.212500E-7	3.266901E-3
1.213000E-7	3.523867E-3
1.213500E-7	3.797965E-3
1.214000E-7	4.111464E-3
1.214500E-7	4.426676E-3
1.215000E-7	4.716192E-3
1.215500E-7	4.950888E-3
1.216000E-7	5.094789E-3
1.216500E-7	5.149609E-3
1.217000E-7	5.180445E-3
1.217500E-7	5.185584E-3
1.218000E-7	5.117060E-3
1.218500E-7	5.010847E-3
1.219000E-7	4.908060E-3
1.219500E-7	4.774438E-3
1.220000E-7	4.597987E-3
1.220500E-7	4.471217E-3
1.221000E-7	4.411258E-3
1.221500E-7	4.368431E-3
1.222000E-7	4.394127E-3
1.222500E-7	4.519184E-3
1.223000E-7	4.635676E-3
1.223500E-7	4.666512E-3
1.224000E-7	4.628823E-3
1.224500E-7	4.536315E-3
1.225000E-7	4.397553E-3
1.225500E-7	4.217677E-3
1.226000E-7	4.008677E-3
1.226500E-7	3.818522E-3
1.227000E-7	3.729440E-3
1.227500E-7	3.698605E-3
1.228000E-7	3.640359E-3
1.228500E-7	3.576974E-3
1.229000E-7	3.583826E-3
1.229500E-7	3.597531E-3
1.230000E-7	3.595818E-3
1.230500E-7	3.612949E-3
1.231000E-7	3.659203E-3
1.231500E-7	3.708883E-3
1.232000E-7	3.765416E-3
1.232500E-7	3.827088E-3
1.233000E-7	3.897325E-3
1.233500E-7	4.005251E-3
1.234000E-7	4.154292E-3
1.234500E-7	4.320463E-3
1.235000E-7	4.498627E-3
1.235500E-7	4.723044E-3
1.236000E-7	4.959453E-3
1.236500E-7	5.147896E-3
1.237000E-7	5.284944E-3
1.237500E-7	5.367174E-3
1.238000E-7	5.332911E-3
1.238500E-7	5.151322E-3
1.239000E-7	4.885790E-3
1.239500E-7	4.572291E-3
1.240000E-7	4.214251E-3
1.240500E-7	3.828801E-3
1.241000E-7	3.463908E-3
1.241500E-7	3.177819E-3
1.242000E-7	2.960254E-3
1.242500E-7	2.761533E-3
1.243000E-7	2.615919E-3
1.243500E-7	2.576517E-3
1.244000E-7	2.615919E-3
1.244500E-7	2.675878E-3
1.245000E-7	2.758107E-3
1.245500E-7	2.886590E-3
1.246000E-7	3.040770E-3
1.246500E-7	3.220647E-3
1.247000E-7	3.436499E-3
1.247500E-7	3.683187E-3
1.248000E-7	3.948719E-3
1.248500E-7	4.243373E-3
1.249000E-7	4.514045E-3
1.249500E-7	4.690495E-3
1.250000E-7	4.755593E-3
1.250500E-7	4.757306E-3
1.251000E-7	4.733323E-3
1.251500E-7	4.645954E-3
1.252000E-7	4.457512E-3
1.252500E-7	4.251939E-3
1.253000E-7	4.114890E-3
1.253500E-7	4.008677E-3
1.254000E-7	3.875055E-3
1.254500E-7	3.799678E-3
1.255000E-7	3.806530E-3
1.255500E-7	3.832227E-3
1.256000E-7	3.887047E-3
1.256500E-7	4.077202E-3
1.257000E-7	4.363291E-3
1.257500E-7	4.640815E-3
1.258000E-7	4.925191E-3
1.258500E-7	5.236977E-3
1.259000E-7	5.485378E-3
1.259500E-7	5.622427E-3
1.260000E-7	5.673820E-3
1.260500E-7	5.630993E-3
1.261000E-7	5.442550E-3
1.261500E-7	5.149609E-3
1.262000E-7	4.837823E-3
1.262500E-7	4.536315E-3
1.263000E-7	4.233095E-3
1.263500E-7	3.921309E-3
1.264000E-7	3.647211E-3
1.264500E-7	3.462195E-3
1.265000E-7	3.397097E-3
1.265500E-7	3.434786E-3
1.266000E-7	3.539285E-3
1.266500E-7	3.722588E-3
1.267000E-7	4.000112E-3
1.267500E-7	4.284488E-3
1.268000E-7	4.520897E-3
1.268500E-7	4.736749E-3
1.269000E-7	4.961167E-3
1.269500E-7	5.118773E-3
1.270000E-7	5.195863E-3
1.270500E-7	5.274666E-3
1.271000E-7	5.368887E-3
1.271500E-7	5.427133E-3
1.272000E-7	5.411715E-3
1.272500E-7	5.362034E-3
1.273000E-7	5.327772E-3
1.273500E-7	5.296936E-3
1.274000E-7	5.257535E-3
1.274500E-7	5.259248E-3
1.275000E-7	5.272953E-3
1.275500E-7	5.212994E-3
1.276000E-7	5.094789E-3
1.276500E-7	4.995429E-3
1.277000E-7	4.909773E-3
1.277500E-7	4.801847E-3
1.278000E-7	4.693921E-3
1.278500E-7	4.615118E-3
1.279000E-7	4.562012E-3
1.279500E-7	4.522610E-3
1.280000E-7	4.462652E-3
1.280500E-7	4.368431E-3
1.281000E-7	4.296480E-3
1.281500E-7	4.277636E-3
1.282000E-7	4.282775E-3
1.282500E-7	4.351299E-3
1.283000E-7	4.510619E-3
1.283500E-7	4.687069E-3
1.284000E-7	4.803560E-3
1.284500E-7	4.901208E-3
1.285000E-7	4.995429E-3
1.285500E-7	5.046822E-3
1.286000E-7	5.029691E-3
1.286500E-7	4.957740E-3
1.287000E-7	4.877224E-3
1.287500E-7	4.779577E-3
1.288000E-7	4.623684E-3
1.288500E-7	4.436955E-3
1.289000E-7	4.339308E-3
1.289500E-7	4.365004E-3
1.290000E-7	4.448947E-3
1.290500E-7	4.597987E-3
1.291000E-7	4.875511E-3
1.291500E-7	5.245543E-3
1.292000E-7	5.607009E-3
1.292500E-7	5.951344E-3
1.293000E-7	6.259704E-3
1.293500E-7	6.432728E-3
1.294000E-7	6.441294E-3
1.294500E-7	6.343646E-3
1.295000E-7	6.081541E-3
1.295500E-7	5.632706E-3
1.296000E-7	5.070806E-3
1.296500E-7	4.467791E-3
1.297000E-7	3.818522E-3
1.297500E-7	3.170967E-3
1.298000E-7	2.624485E-3
1.298500E-7	2.220191E-3
1.299000E-7	1.964937E-3
1.299500E-7	1.863864E-3
1.300000E-7	1.899839E-3
1.300500E-7	2.040314E-3
1.301000E-7	2.287002E-3
1.301500E-7	2.631337E-3
1.302000E-7	2.970533E-3
1.302500E-7	3.251483E-3
1.303000E-7	3.527294E-3
1.303500E-7	3.799678E-3
1.304000E-7	4.044653E-3
1.304500E-7	4.277636E-3
1.305000E-7	4.515758E-3
1.305500E-7	4.748741E-3
1.306000E-7	4.976585E-3
1.306500E-7	5.154748E-3
1.307000E-7	5.245543E-3
1.307500E-7	5.293510E-3
1.308000E-7	5.320920E-3
1.308500E-7	5.293510E-3
1.309000E-7	5.224986E-3
1.309500E-7	5.158174E-3
1.310000E-7	5.058814E-3
1.310500E-7	4.908060E-3
1.311000E-7	4.776151E-3
1.311500E-7	4.693921E-3
1.312000E-7	4.621971E-3
1.312500E-7	4.565438E-3
1.313000E-7	4.522610E-3
1.313500E-7	4.455799E-3
1.314000E-7	4.361578E-3
1.314500E-7	4.255365E-3
1.315000E-7	4.123456E-3
1.315500E-7	3.907604E-3
1.316000E-7	3.647211E-3
1.316500E-7	3.393671E-3
1.317000E-7	3.179532E-3
1.317500E-7	3.044196E-3
1.318000E-7	2.991090E-3
1.318500E-7	2.997943E-3
1.319000E-7	3.092164E-3
1.319500E-7	3.272040E-3
1.320000E-7	3.503310E-3
1.320500E-7	3.772268E-3
1.321000E-7	4.060071E-3
1.321500E-7	4.349586E-3
1.322000E-7	4.599700E-3
1.322500E-7	4.759020E-3
1.323000E-7	4.837823E-3
1.323500E-7	4.877224E-3
1.324000E-7	4.837823E-3
1.324500E-7	4.714479E-3
1.325000E-7	4.556873E-3
1.325500E-7	4.383849E-3
1.326000E-7	4.186841E-3
1.326500E-7	4.061784E-3
1.327000E-7	4.054931E-3
1.327500E-7	4.087480E-3
1.328000E-7	4.140587E-3
1.328500E-7	4.291341E-3
1.329000E-7	4.500340E-3
1.329500E-7	4.656233E-3
1.330000E-7	4.794995E-3
1.330500E-7	4.973158E-3
1.331000E-7	5.146182E-3
1.331500E-7	5.264387E-3
1.332000E-7	5.290084E-3
1.332500E-7	5.173592E-3
1.333000E-7	4.940609E-3
1.333500E-7	4.663085E-3
1.334000E-7	4.322177E-3
1.334500E-7	3.900751E-3
1.335000E-7	3.477613E-3
1.335500E-7	3.128139E-3
1.336000E-7	2.860894E-3
1.336500E-7	2.682730E-3
1.337000E-7	2.627911E-3
1.337500E-7	2.701574E-3
1.338000E-7	2.867746E-3
1.338500E-7	3.109295E-3
1.339000E-7	3.381679E-3
1.339500E-7	3.655777E-3
1.340000E-7	3.970989E-3
1.340500E-7	4.315324E-3
1.341000E-7	4.580856E-3
1.341500E-7	4.707626E-3
1.342000E-7	4.796708E-3
1.342500E-7	4.878937E-3
1.343000E-7	4.873798E-3
1.343500E-7	4.788142E-3
1.344000E-7	4.697348E-3
1.344500E-7	4.589422E-3
1.345000E-7	4.455799E-3
1.345500E-7	4.359865E-3
1.346000E-7	4.341021E-3
1.346500E-7	4.382135E-3
1.347000E-7	4.452373E-3
1.347500E-7	4.584282E-3
1.348000E-7	4.793282E-3
1.348500E-7	5.027978E-3
1.349000E-7	5.233551E-3
1.349500E-7	5.362034E-3
1.350000E-7	5.423706E-3
1.350500E-7	5.418567E-3
1.351000E-7	5.308928E-3
1.351500E-7	5.106781E-3
1.352000E-7	4.825831E-3
1.352500E-7	4.459225E-3
1.353000E-7	4.054931E-3
1.353500E-7	3.672908E-3
1.354000E-7	3.328573E-3
1.354500E-7	3.004795E-3
1.355000E-7	2.734124E-3
1.355500E-7	2.586796E-3
1.356000E-7	2.554247E-3
1.356500E-7	2.583370E-3
1.357000E-7	2.660460E-3
1.357500E-7	2.826632E-3
1.358000E-7	3.061328E-3
1.358500E-7	3.289171E-3
1.359000E-7	3.482753E-3
1.359500E-7	3.712309E-3
1.360000E-7	3.988120E-3
1.360500E-7	4.253652E-3
1.361000E-7	4.505479E-3
1.361500E-7	4.747028E-3
1.362000E-7	4.998855E-3
1.362500E-7	5.271239E-3
1.363000E-7	5.560755E-3
1.363500E-7	5.773181E-3
1.364000E-7	5.906803E-3
1.364500E-7	6.074688E-3
1.365000E-7	6.222016E-3
1.365500E-7	6.215163E-3
1.366000E-7	6.107237E-3
1.366500E-7	6.011303E-3
1.367000E-7	5.911943E-3
1.367500E-7	5.773181E-3
1.368000E-7	5.639558E-3
1.368500E-7	5.541911E-3
1.369000E-7	5.445977E-3
1.369500E-7	5.338051E-3
1.370000E-7	5.207854E-3
1.370500E-7	5.033117E-3
1.371000E-7	4.842962E-3
1.371500E-7	4.618545E-3
1.372000E-7	4.329029E-3
1.372500E-7	4.024095E-3
1.373000E-7	3.763703E-3
1.373500E-7	3.580400E-3
1.374000E-7	3.481040E-3
1.374500E-7	3.460482E-3
1.375000E-7	3.501597E-3
1.375500E-7	3.606097E-3
1.376000E-7	3.753424E-3
1.376500E-7	3.868202E-3
1.377000E-7	3.970989E-3
1.377500E-7	4.144013E-3
1.378000E-7	4.329029E-3
1.378500E-7	4.412971E-3
1.379000E-7	4.411258E-3
1.379500E-7	4.371857E-3
1.380000E-7	4.301619E-3
1.380500E-7	4.193693E-3
1.381000E-7	4.070349E-3
1.381500E-7	3.952145E-3
1.382000E-7	3.856211E-3
1.382500E-7	3.789399E-3
1.383000E-7	3.734580E-3
1.383500E-7	3.712309E-3
1.384000E-7	3.773981E-3
1.384500E-7	3.911030E-3
1.385000E-7	4.082341E-3
1.385500E-7	4.274209E-3
1.386000E-7	4.457512E-3
1.386500E-7	4.584282E-3
1.387000E-7	4.659659E-3
1.387500E-7	4.664799E-3
1.388000E-7	4.539742E-3
1.388500E-7	4.294767E-3
1.389000E-7	4.006964E-3
1.389500E-7	3.705457E-3
1.390000E-7	3.417654E-3
1.390500E-7	3.177819E-3
1.391000E-7	2.985951E-3
1.391500E-7	2.818066E-3
1.392000E-7	2.761533E-3
1.392500E-7	2.847189E-3
1.393000E-7	2.989377E-3
1.393500E-7	3.129852E-3
1.394000E-7	3.354269E-3
1.394500E-7	3.643785E-3
1.395000E-7	3.902465E-3
1.395500E-7	4.078915E-3
1.396000E-7	4.200546E-3
1.396500E-7	4.260505E-3
1.397000E-7	4.260505E-3
1.397500E-7	4.234808E-3
1.398000E-7	4.222816E-3
1.398500E-7	4.231382E-3
1.399000E-7	4.186841E-3
1.399500E-7	4.092620E-3
1.400000E-7	3.960710E-3
1.400500E-7	3.811670E-3
1.401000E-7	3.626654E-3
1.401500E-7	3.479326E-3
1.402000E-7	3.415941E-3
1.402500E-7	3.409089E-3
1.403000E-7	3.460482E-3
1.403500E-7	3.561556E-3
1.404000E-7	3.667769E-3
1.404500E-7	3.772268E-3
1.405000E-7	3.950432E-3
1.405500E-7	4.195406E-3
1.406000E-7	4.412971E-3
1.406500E-7	4.558586E-3
1.407000E-7	4.661372E-3
1.407500E-7	4.699061E-3
1.408000E-7	4.651094E-3
1.408500E-7	4.575717E-3
1.409000E-7	4.472930E-3
1.409500E-7	4.320463E-3
1.410000E-7	4.181702E-3
1.410500E-7	4.085767E-3
1.411000E-7	4.013817E-3
1.411500E-7	4.006964E-3
1.412000E-7	4.106325E-3
1.412500E-7	4.269070E-3
1.413000E-7	4.448947E-3
1.413500E-7	4.603127E-3
1.414000E-7	4.699061E-3
1.414500E-7	4.762446E-3
1.415000E-7	4.798421E-3
1.415500E-7	4.747028E-3
1.416000E-7	4.615118E-3
1.416500E-7	4.438668E-3
1.417000E-7	4.222816E-3
1.417500E-7	3.953858E-3
1.418000E-7	3.755137E-3
1.418500E-7	3.690039E-3
1.419000E-7	3.683187E-3
1.419500E-7	3.691752E-3
1.420000E-7	3.768842E-3
1.420500E-7	3.856211E-3
1.421000E-7	3.871629E-3
1.421500E-7	3.864776E-3
1.422000E-7	3.873342E-3
1.422500E-7	3.851071E-3
1.423000E-7	3.784260E-3
1.423500E-7	3.686613E-3
1.424000E-7	3.551277E-3
1.424500E-7	3.403950E-3
1.425000E-7	3.284032E-3
1.425500E-7	3.186385E-3
1.426000E-7	3.069893E-3
1.426500E-7	2.985951E-3
1.427000E-7	2.973959E-3
1.427500E-7	3.013361E-3
1.428000E-7	3.075032E-3
1.428500E-7	3.160688E-3
1.429000E-7	3.287458E-3
1.429500E-7	3.467335E-3
1.430000E-7	3.686613E-3
1.430500E-7	3.914456E-3
1.431000E-7	4.109751E-3
1.431500E-7	4.234808E-3
1.432000E-7	4.274209E-3
1.432500E-7	4.231382E-3
1.433000E-7	4.073776E-3
1.433500E-7	3.801391E-3
1.434000E-7	3.505023E-3
1.434500E-7	3.239491E-3
1.435000E-7	2.965393E-3
1.435500E-7	2.711853E-3
1.436000E-7	2.583370E-3
1.436500E-7	2.569665E-3
1.437000E-7	2.583370E-3
1.437500E-7	2.639903E-3
1.438000E-7	2.785517E-3
1.438500E-7	2.989377E-3
1.439000E-7	3.225786E-3
1.439500E-7	3.467335E-3
1.440000E-7	3.654064E-3
1.440500E-7	3.787686E-3
1.441000E-7	3.883620E-3
1.441500E-7	3.902465E-3
1.442000E-7	3.811670E-3
1.442500E-7	3.698605E-3
1.443000E-7	3.600957E-3
1.443500E-7	3.493031E-3
1.444000E-7	3.398810E-3
1.444500E-7	3.393671E-3
1.445000E-7	3.457056E-3
1.445500E-7	3.551277E-3
1.446000E-7	3.664342E-3
1.446500E-7	3.780834E-3
1.447000E-7	3.816809E-3
1.447500E-7	3.738006E-3
1.448000E-7	3.575261E-3
1.448500E-7	3.407376E-3
1.449000E-7	3.206942E-3
1.449500E-7	2.936271E-3
1.450000E-7	2.636476E-3
1.450500E-7	2.442895E-3
1.451000E-7	2.381223E-3
1.451500E-7	2.405206E-3
1.452000E-7	2.513132E-3
1.452500E-7	2.746115E-3
1.453000E-7	3.056188E-3
1.453500E-7	3.379966E-3
1.454000E-7	3.674621E-3
1.454500E-7	3.936727E-3
1.455000E-7	4.130308E-3
1.455500E-7	4.164570E-3
1.456000E-7	4.044653E-3
1.456500E-7	3.839080E-3
1.457000E-7	3.568408E-3
1.457500E-7	3.196663E-3
1.458000E-7	2.775238E-3
1.458500E-7	2.382936E-3
1.459000E-7	2.064298E-3
1.459500E-7	1.833028E-3
1.460000E-7	1.704544E-3
1.460500E-7	1.661717E-3
1.461000E-7	1.743946E-3
1.461500E-7	1.985495E-3
1.462000E-7	2.328117E-3
1.462500E-7	2.674165E-3
1.463000E-7	3.004795E-3
1.463500E-7	3.330286E-3
1.464000E-7	3.642072E-3
1.464500E-7	3.912743E-3
1.465000E-7	4.113177E-3
1.465500E-7	4.234808E-3
1.466000E-7	4.255365E-3
1.466500E-7	4.164570E-3
1.467000E-7	4.006964E-3
1.467500E-7	3.832227E-3
1.468000E-7	3.681473E-3
1.468500E-7	3.559843E-3
1.469000E-7	3.479326E-3
1.469500E-7	3.445064E-3
1.470000E-7	3.419368E-3
1.470500E-7	3.398810E-3
1.471000E-7	3.388532E-3
1.471500E-7	3.386818E-3
1.472000E-7	3.373114E-3
1.472500E-7	3.326860E-3
1.473000E-7	3.236065E-3
1.473500E-7	3.109295E-3
1.474000E-7	2.984238E-3
1.474500E-7	2.896869E-3
1.475000E-7	2.852328E-3
1.475500E-7	2.855754E-3
1.476000E-7	2.915713E-3
1.476500E-7	3.037344E-3
1.477000E-7	3.213794E-3
1.477500E-7	3.448490E-3
1.478000E-7	3.681473E-3
1.478500E-7	3.849358E-3
1.479000E-7	3.953858E-3
1.479500E-7	4.027522E-3
1.480000E-7	4.032661E-3
1.480500E-7	3.938440E-3
1.481000E-7	3.801391E-3
1.481500E-7	3.635219E-3
1.482000E-7	3.385105E-3
1.482500E-7	3.056188E-3
1.483000E-7	2.739263E-3
1.483500E-7	2.480583E-3
1.484000E-7	2.316125E-3
1.484500E-7	2.242461E-3
1.485000E-7	2.232182E-3
1.485500E-7	2.285289E-3
1.486000E-7	2.430903E-3
1.486500E-7	2.631337E-3
1.487000E-7	2.824918E-3
1.487500E-7	2.997943E-3
1.488000E-7	3.153836E-3
1.488500E-7	3.237778E-3
1.489000E-7	3.287458E-3
1.489500E-7	3.345704E-3
1.490000E-7	3.366261E-3
1.490500E-7	3.321720E-3
1.491000E-7	3.266901E-3
1.491500E-7	3.227499E-3
1.492000E-7	3.193237E-3
1.492500E-7	3.189811E-3
1.493000E-7	3.256622E-3
1.493500E-7	3.417654E-3
1.494000E-7	3.662629E-3
1.494500E-7	3.967563E-3
1.495000E-7	4.274209E-3
1.495500E-7	4.500340E-3
1.496000E-7	4.615118E-3
1.496500E-7	4.615118E-3
1.497000E-7	4.520897E-3
1.497500E-7	4.332455E-3
1.498000E-7	4.051505E-3
1.498500E-7	3.736293E-3
1.499000E-7	3.385105E-3
1.499500E-7	2.967107E-3
1.500000E-7	2.538829E-3
1.500500E-7	2.213338E-3
1.501000E-7	2.012904E-3
1.501500E-7	1.880995E-3
1.502000E-7	1.845019E-3
1.502500E-7	1.952945E-3
1.503000E-7	2.165371E-3
1.503500E-7	2.432616E-3
1.504000E-7	2.735837E-3
1.504500E-7	3.057901E-3
1.505000E-7	3.340565E-3
1.505500E-7	3.558129E-3
1.506000E-7	3.660916E-3
1.506500E-7	3.619801E-3
1.507000E-7	3.482753E-3
1.507500E-7	3.309729E-3
1.508000E-7	3.138418E-3
1.508500E-7	2.970533E-3
1.509000E-7	2.843763E-3
1.509500E-7	2.790656E-3
1.510000E-7	2.814640E-3
1.510500E-7	2.903721E-3
1.511000E-7	3.033918E-3
1.511500E-7	3.215507E-3
1.512000E-7	3.451917E-3
1.512500E-7	3.707170E-3
1.513000E-7	3.940153E-3
1.513500E-7	4.128595E-3
1.514000E-7	4.260505E-3
1.514500E-7	4.337595E-3
1.515000E-7	4.346160E-3
1.515500E-7	4.306759E-3
1.516000E-7	4.229669E-3
1.516500E-7	4.135448E-3
1.517000E-7	4.039513E-3
1.517500E-7	3.960710E-3
1.518000E-7	3.905891E-3
1.518500E-7	3.864776E-3
1.519000E-7	3.823662E-3
1.519500E-7	3.756850E-3
1.520000E-7	3.628367E-3
1.520500E-7	3.451917E-3
1.521000E-7	3.232639E-3
1.521500E-7	3.001369E-3
1.522000E-7	2.795796E-3
1.522500E-7	2.634763E-3
1.523000E-7	2.487436E-3
1.523500E-7	2.340108E-3
1.524000E-7	2.218477E-3
1.524500E-7	2.163658E-3
1.525000E-7	2.185928E-3
1.525500E-7	2.209912E-3
1.526000E-7	2.211625E-3
1.526500E-7	2.239035E-3
1.527000E-7	2.314412E-3
1.527500E-7	2.384649E-3
1.528000E-7	2.430903E-3
1.528500E-7	2.511419E-3
1.529000E-7	2.633050E-3
1.529500E-7	2.759820E-3
1.530000E-7	2.890017E-3
1.530500E-7	3.045910E-3
1.531000E-7	3.196663E-3
1.531500E-7	3.325147E-3
1.532000E-7	3.415941E-3
1.532500E-7	3.448490E-3
1.533000E-7	3.431359E-3
1.533500E-7	3.366261E-3
1.534000E-7	3.251483E-3
1.534500E-7	3.124713E-3
1.535000E-7	2.996229E-3
1.535500E-7	2.823205E-3
1.536000E-7	2.591935E-3
1.536500E-7	2.338395E-3
1.537000E-7	2.125970E-3
1.537500E-7	1.987208E-3
1.538000E-7	1.920396E-3
1.538500E-7	1.908405E-3
1.539000E-7	1.922109E-3
1.539500E-7	1.947806E-3
1.540000E-7	2.030035E-3
1.540500E-7	2.173937E-3
1.541000E-7	2.348674E-3
1.541500E-7	2.549108E-3
1.542000E-7	2.788943E-3
1.542500E-7	3.020213E-3
1.543000E-7	3.181245E-3
1.543500E-7	3.258335E-3
1.544000E-7	3.306302E-3
1.544500E-7	3.304589E-3
1.545000E-7	3.234352E-3
1.545500E-7	3.143557E-3
1.546000E-7	3.025352E-3
1.546500E-7	2.871172E-3
1.547000E-7	2.761533E-3
1.547500E-7	2.746115E-3
1.548000E-7	2.749542E-3
1.548500E-7	2.706714E-3
1.549000E-7	2.689583E-3
1.549500E-7	2.660460E-3
1.550000E-7	2.588509E-3
1.550500E-7	2.557673E-3
1.551000E-7	2.627911E-3
1.551500E-7	2.758107E-3
1.552000E-7	2.919139E-3
1.552500E-7	3.107582E-3
1.553000E-7	3.287458E-3
1.553500E-7	3.434786E-3
1.554000E-7	3.542711E-3
1.554500E-7	3.587252E-3
1.555000E-7	3.592392E-3
1.555500E-7	3.580400E-3
1.556000E-7	3.496458E-3
1.556500E-7	3.323433E-3
1.557000E-7	3.138418E-3
1.557500E-7	2.932844E-3
1.558000E-7	2.694722E-3
1.558500E-7	2.504567E-3
1.559000E-7	2.398354E-3
1.559500E-7	2.292141E-3
1.560000E-7	2.184215E-3
1.560500E-7	2.132822E-3
1.561000E-7	2.139674E-3
1.561500E-7	2.165371E-3
1.562000E-7	2.261305E-3
1.562500E-7	2.436042E-3
1.563000E-7	2.615919E-3
1.563500E-7	2.799222E-3
1.564000E-7	2.997943E-3
1.564500E-7	3.145270E-3
1.565000E-7	3.232639E-3
1.565500E-7	3.330286E-3
1.566000E-7	3.409089E-3
1.566500E-7	3.402236E-3
1.567000E-7	3.400523E-3
1.567500E-7	3.455343E-3
1.568000E-7	3.523867E-3
1.568500E-7	3.606097E-3
1.569000E-7	3.755137E-3
1.569500E-7	3.890473E-3
1.570000E-7	3.912743E-3
1.570500E-7	3.888760E-3
1.571000E-7	3.892186E-3
1.571500E-7	3.845932E-3
1.572000E-7	3.698605E-3
1.572500E-7	3.506736E-3
1.573000E-7	3.333712E-3
1.573500E-7	3.145270E-3
1.574000E-7	2.855754E-3
1.574500E-7	2.489149E-3
1.575000E-7	2.177363E-3
1.575500E-7	1.961511E-3
1.576000E-7	1.795339E-3
1.576500E-7	1.675422E-3
1.577000E-7	1.646299E-3
1.577500E-7	1.690840E-3
1.578000E-7	1.817610E-3
1.578500E-7	2.030035E-3
1.579000E-7	2.290428E-3
1.579500E-7	2.576517E-3
1.580000E-7	2.895156E-3
1.580500E-7	3.203516E-3
1.581000E-7	3.446777E-3
1.581500E-7	3.614662E-3
1.582000E-7	3.703744E-3
1.582500E-7	3.751711E-3
1.583000E-7	3.794539E-3
1.583500E-7	3.773981E-3
1.584000E-7	3.609523E-3
1.584500E-7	3.355983E-3
1.585000E-7	3.111008E-3
1.585500E-7	2.881451E-3
1.586000E-7	2.646755E-3
1.586500E-7	2.442895E-3
1.587000E-7	2.341821E-3
1.587500E-7	2.357239E-3
1.588000E-7	2.403493E-3
1.588500E-7	2.429190E-3
1.589000E-7	2.478870E-3
1.589500E-7	2.561099E-3
1.590000E-7	2.573091E-3
1.590500E-7	2.528550E-3
1.591000E-7	2.502854E-3
1.591500E-7	2.441182E-3
1.592000E-7	2.321264E-3
1.592500E-7	2.203059E-3
1.593000E-7	2.100273E-3
1.593500E-7	1.963224E-3
1.594000E-7	1.836454E-3
1.594500E-7	1.769643E-3
1.595000E-7	1.706258E-3
1.595500E-7	1.656577E-3
1.596000E-7	1.658290E-3
1.596500E-7	1.692553E-3
1.597000E-7	1.776495E-3
1.597500E-7	1.934101E-3
1.598000E-7	2.112265E-3
1.598500E-7	2.275010E-3
1.599000E-7	2.492575E-3
1.599500E-7	2.764960E-3
1.600000E-7	3.001369E-3
1.600500E-7	3.196663E-3
1.601000E-7	3.424507E-3
1.601500E-7	3.664342E-3
1.602000E-7	3.827088E-3
1.602500E-7	3.912743E-3
1.603000E-7	3.974415E-3
1.603500E-7	4.010391E-3
1.604000E-7	4.001825E-3
1.604500E-7	3.969276E-3
1.605000E-7	3.907604E-3
1.605500E-7	3.801391E-3
1.606000E-7	3.686613E-3
1.606500E-7	3.604383E-3
1.607000E-7	3.558129E-3
1.607500E-7	3.549564E-3
1.608000E-7	3.559843E-3
1.608500E-7	3.544425E-3
1.609000E-7	3.510162E-3
1.609500E-7	3.499884E-3
1.610000E-7	3.493031E-3
1.610500E-7	3.457056E-3
1.611000E-7	3.352556E-3
1.611500E-7	3.141844E-3
1.612000E-7	2.845476E-3
1.612500E-7	2.571378E-3
1.613000E-7	2.353813E-3
1.613500E-7	2.144814E-3
1.614000E-7	1.978642E-3
1.614500E-7	1.918683E-3
1.615000E-7	1.920396E-3
1.615500E-7	1.918683E-3
1.616000E-7	1.951232E-3
1.616500E-7	2.038601E-3
1.617000E-7	2.143101E-3
1.617500E-7	2.280149E-3
1.618000E-7	2.473731E-3
1.618500E-7	2.718706E-3
1.619000E-7	3.020213E-3
1.619500E-7	3.388532E-3
1.620000E-7	3.763703E-3
1.620500E-7	4.075489E-3
1.621000E-7	4.317037E-3
1.621500E-7	4.553446E-3
1.622000E-7	4.760733E-3
1.622500E-7	4.861806E-3
1.623000E-7	4.861806E-3
1.623500E-7	4.813839E-3
1.624000E-7	4.695635E-3
1.624500E-7	4.483209E-3
1.625000E-7	4.227956E-3
1.625500E-7	3.970989E-3
1.626000E-7	3.710596E-3
1.626500E-7	3.469048E-3
1.627000E-7	3.272040E-3
1.627500E-7	3.111008E-3
1.628000E-7	2.972246E-3
1.628500E-7	2.864320E-3
1.629000E-7	2.804361E-3
1.629500E-7	2.771812E-3
1.630000E-7	2.775238E-3
1.630500E-7	2.800935E-3
1.631000E-7	2.819779E-3
1.631500E-7	2.819779E-3
1.632000E-7	2.795796E-3
1.632500E-7	2.773525E-3
1.633000E-7	2.766673E-3
1.633500E-7	2.708427E-3
1.634000E-7	2.574804E-3
1.634500E-7	2.458313E-3
1.635000E-7	2.408633E-3
1.635500E-7	2.329830E-3
1.636000E-7	2.235609E-3
1.636500E-7	2.235609E-3
1.637000E-7	2.324690E-3
1.637500E-7	2.422338E-3
1.638000E-7	2.514845E-3
1.638500E-7	2.638189E-3
1.639000E-7	2.771812E-3
1.639500E-7	2.891730E-3
1.640000E-7	3.015074E-3
1.640500E-7	3.138418E-3
1.641000E-7	3.284032E-3
1.641500E-7	3.415941E-3
1.642000E-7	3.506736E-3
1.642500E-7	3.578687E-3
1.643000E-7	3.640359E-3
1.643500E-7	3.662629E-3
1.644000E-7	3.654064E-3
1.644500E-7	3.631793E-3
1.645000E-7	3.571834E-3
1.645500E-7	3.510162E-3
1.646000E-7	3.520441E-3
1.646500E-7	3.611236E-3
1.647000E-7	3.695178E-3
1.647500E-7	3.726014E-3
1.648000E-7	3.739719E-3
1.648500E-7	3.761990E-3
1.649000E-7	3.799678E-3
1.649500E-7	3.811670E-3
1.650000E-7	3.749998E-3
1.650500E-7	3.628367E-3
1.651000E-7	3.499884E-3
1.651500E-7	3.343991E-3
1.652000E-7	3.165827E-3
1.652500E-7	3.045910E-3
1.653000E-7	2.977385E-3
1.653500E-7	2.907148E-3
1.654000E-7	2.867746E-3
1.654500E-7	2.943123E-3
1.655000E-7	3.071606E-3
1.655500E-7	3.176106E-3
1.656000E-7	3.297737E-3
1.656500E-7	3.475900E-3
1.657000E-7	3.607810E-3
1.657500E-7	3.669482E-3
1.658000E-7	3.746572E-3
1.658500E-7	3.840793E-3
1.659000E-7	3.866489E-3
1.659500E-7	3.809957E-3
1.660000E-7	3.736293E-3
1.660500E-7	3.659203E-3
1.661000E-7	3.580400E-3
1.661500E-7	3.501597E-3
1.662000E-7	3.379966E-3
1.662500E-7	3.201803E-3
1.663000E-7	3.049336E-3
1.663500E-7	2.937984E-3
1.664000E-7	2.872885E-3
1.664500E-7	2.876312E-3
1.665000E-7	2.902008E-3
1.665500E-7	2.843763E-3
1.666000E-7	2.687870E-3
1.666500E-7	2.526837E-3
1.667000E-7	2.374370E-3
1.667500E-7	2.218477E-3
1.668000E-7	2.060871E-3
1.668500E-7	1.918683E-3
1.669000E-7	1.771356E-3
1.669500E-7	1.671995E-3
1.670000E-7	1.670282E-3
1.670500E-7	1.769643E-3
1.671000E-7	1.944380E-3
1.671500E-7	2.160232E-3
1.672000E-7	2.388075E-3
1.672500E-7	2.641616E-3
1.673000E-7	2.905435E-3
1.673500E-7	3.134991E-3
1.674000E-7	3.299450E-3
1.674500E-7	3.424507E-3
1.675000E-7	3.508449E-3
1.675500E-7	3.552990E-3
1.676000E-7	3.576974E-3
1.676500E-7	3.583826E-3
1.677000E-7	3.571834E-3
1.677500E-7	3.563269E-3
1.678000E-7	3.621515E-3
1.678500E-7	3.738006E-3
1.679000E-7	3.869916E-3
1.679500E-7	4.001825E-3
1.680000E-7	4.104612E-3
1.680500E-7	4.157718E-3
1.681000E-7	4.161144E-3
1.681500E-7	4.111464E-3
1.682000E-7	3.989833E-3
1.682500E-7	3.818522E-3
1.683000E-7	3.635219E-3
1.683500E-7	3.443351E-3
1.684000E-7	3.268614E-3
1.684500E-7	3.170967E-3
1.685000E-7	3.176106E-3
1.685500E-7	3.270327E-3
1.686000E-7	3.393671E-3
1.686500E-7	3.518728E-3
1.687000E-7	3.588965E-3
1.687500E-7	3.606097E-3
1.688000E-7	3.568408E-3
1.688500E-7	3.493031E-3
1.689000E-7	3.345704E-3
1.689500E-7	3.128139E-3
1.690000E-7	2.886590E-3
1.690500E-7	2.645042E-3
1.691000E-7	2.370944E-3
1.691500E-7	2.093420E-3
1.692000E-7	1.891273E-3
1.692500E-7	1.791913E-3
1.693000E-7	1.735380E-3
1.693500E-7	1.719962E-3
1.694000E-7	1.805618E-3
1.694500E-7	2.012904E-3
1.695000E-7	2.278436E-3
1.695500E-7	2.561099E-3
1.696000E-7	2.872885E-3
1.696500E-7	3.176106E-3
1.697000E-7	3.397097E-3
1.697500E-7	3.554703E-3
1.698000E-7	3.681473E-3
1.698500E-7	3.738006E-3
1.699000E-7	3.652351E-3
1.699500E-7	3.491318E-3
1.700000E-7	3.340565E-3
1.700500E-7	3.172680E-3
1.701000E-7	2.941410E-3
1.701500E-7	2.684443E-3
1.702000E-7	2.456600E-3
1.702500E-7	2.239035E-3
1.703000E-7	2.030035E-3
1.703500E-7	1.858724E-3
1.704000E-7	1.742233E-3
1.704500E-7	1.701118E-3
1.705000E-7	1.778208E-3
1.705500E-7	1.956372E-3
1.706000E-7	2.201346E-3
1.706500E-7	2.514845E-3
1.707000E-7	2.848902E-3
1.707500E-7	3.105868E-3
1.708000E-7	3.236065E-3
1.708500E-7	3.342278E-3
1.709000E-7	3.506736E-3
1.709500E-7	3.683187E-3
1.710000E-7	3.775694E-3
1.710500E-7	3.777408E-3
1.711000E-7	3.741432E-3
1.711500E-7	3.671195E-3
1.712000E-7	3.544425E-3
1.712500E-7	3.402236E-3
1.713000E-7	3.320007E-3
1.713500E-7	3.275466E-3
1.714000E-7	3.184672E-3
1.714500E-7	3.027065E-3
1.715000E-7	2.843763E-3
1.715500E-7	2.648468E-3
1.716000E-7	2.412059E-3
1.716500E-7	2.177363E-3
1.717000E-7	1.994060E-3
1.717500E-7	1.899839E-3
1.718000E-7	1.882708E-3
1.718500E-7	1.904978E-3
1.719000E-7	1.942667E-3
1.719500E-7	1.994060E-3
1.720000E-7	2.042027E-3
1.720500E-7	2.089994E-3
1.721000E-7	2.179076E-3
1.721500E-7	2.278436E-3
1.722000E-7	2.336682E-3
1.722500E-7	2.365805E-3
1.723000E-7	2.401780E-3
1.723500E-7	2.391502E-3
1.724000E-7	2.310985E-3
1.724500E-7	2.218477E-3
1.725000E-7	2.149953E-3
1.725500E-7	2.108838E-3
1.726000E-7	2.108838E-3
1.726500E-7	2.185928E-3
1.727000E-7	2.300707E-3
1.727500E-7	2.389788E-3
1.728000E-7	2.489149E-3
1.728500E-7	2.667312E-3
1.729000E-7	2.847189E-3
1.729500E-7	2.924279E-3
1.730000E-7	2.920853E-3
1.730500E-7	2.907148E-3
1.731000E-7	2.835197E-3
1.731500E-7	2.687870E-3
1.732000E-7	2.538829E-3
1.732500E-7	2.418911E-3
1.733000E-7	2.292141E-3
1.733500E-7	2.203059E-3
1.734000E-7	2.225330E-3
1.734500E-7	2.322977E-3
1.735000E-7	2.458313E-3
1.735500E-7	2.612493E-3
1.736000E-7	2.747828E-3
1.736500E-7	2.866033E-3
1.737000E-7	2.980811E-3
1.737500E-7	3.066467E-3
1.738000E-7	3.085311E-3
1.738500E-7	3.037344E-3
1.739000E-7	2.917426E-3
1.739500E-7	2.734124E-3
1.740000E-7	2.533690E-3
1.740500E-7	2.381223E-3
1.741000E-7	2.287002E-3
1.741500E-7	2.266445E-3
1.742000E-7	2.307559E-3
1.742500E-7	2.386362E-3
1.743000E-7	2.492575E-3
1.743500E-7	2.631337E-3
1.744000E-7	2.771812E-3
1.744500E-7	2.898582E-3
1.745000E-7	3.047623E-3
1.745500E-7	3.222360E-3
1.746000E-7	3.385105E-3
1.746500E-7	3.496458E-3
1.747000E-7	3.556416E-3
1.747500E-7	3.592392E-3
1.748000E-7	3.604383E-3
1.748500E-7	3.558129E-3
1.749000E-7	3.453630E-3
1.749500E-7	3.282319E-3
1.750000E-7	3.100729E-3
1.750500E-7	2.956828E-3
1.751000E-7	2.828345E-3
1.751500E-7	2.670739E-3
1.752000E-7	2.561099E-3
1.752500E-7	2.557673E-3
1.753000E-7	2.617632E-3
1.753500E-7	2.689583E-3
1.754000E-7	2.799222E-3
1.754500E-7	2.953402E-3
1.755000E-7	3.157262E-3
1.755500E-7	3.361122E-3
1.756000E-7	3.506736E-3
1.756500E-7	3.597531E-3
1.757000E-7	3.707170E-3
1.757500E-7	3.840793E-3
1.758000E-7	3.907604E-3
1.758500E-7	3.866489E-3
1.759000E-7	3.787686E-3
1.759500E-7	3.744858E-3
1.760000E-7	3.751711E-3
1.760500E-7	3.734580E-3
1.761000E-7	3.600957E-3
1.761500E-7	3.427933E-3
1.762000E-7	3.302876E-3
1.762500E-7	3.205229E-3
1.763000E-7	3.073319E-3
1.763500E-7	2.902008E-3
1.764000E-7	2.715279E-3
1.764500E-7	2.549108E-3
1.765000E-7	2.403493E-3
1.765500E-7	2.216764E-3
1.766000E-7	1.997486E-3
1.766500E-7	1.872429E-3
1.767000E-7	1.839880E-3
1.767500E-7	1.821036E-3
1.768000E-7	1.822749E-3
1.768500E-7	1.903265E-3
1.769000E-7	2.040314E-3
1.769500E-7	2.233895E-3
1.770000E-7	2.497714E-3
1.770500E-7	2.766673E-3
1.771000E-7	2.977385E-3
1.771500E-7	3.148696E-3
1.772000E-7	3.224073E-3
1.772500E-7	3.136704E-3
1.773000E-7	2.953402E-3
1.773500E-7	2.775238E-3
1.774000E-7	2.627911E-3
1.774500E-7	2.482296E-3
1.775000E-7	2.338395E-3
1.775500E-7	2.209912E-3
1.776000E-7	2.141388E-3
1.776500E-7	2.105412E-3
1.777000E-7	2.083142E-3
1.777500E-7	2.113978E-3
1.778000E-7	2.249313E-3
1.778500E-7	2.415485E-3
1.779000E-7	2.530263E-3
1.779500E-7	2.639903E-3
1.780000E-7	2.758107E-3
1.780500E-7	2.809500E-3
1.781000E-7	2.768386E-3
1.781500E-7	2.716992E-3
1.782000E-7	2.660460E-3
1.782500E-7	2.533690E-3
1.783000E-7	2.367518E-3
1.783500E-7	2.232182E-3
1.784000E-7	2.105412E-3
1.784500E-7	1.966650E-3
1.785000E-7	1.892987E-3
1.785500E-7	1.910118E-3
1.786000E-7	1.954659E-3
1.786500E-7	2.042027E-3
1.787000E-7	2.206486E-3
1.787500E-7	2.393215E-3
1.788000E-7	2.526837E-3
1.788500E-7	2.624485E-3
1.789000E-7	2.742689E-3
1.789500E-7	2.910574E-3
1.790000E-7	3.066467E-3
1.790500E-7	3.188098E-3
1.791000E-7	3.328573E-3
1.791500E-7	3.506736E-3
1.792000E-7	3.667769E-3
1.792500E-7	3.799678E-3
1.793000E-7	3.929874E-3
1.793500E-7	4.037800E-3
1.794000E-7	4.082341E-3
1.794500E-7	4.101185E-3
1.795000E-7	4.123456E-3
1.795500E-7	4.049792E-3
1.796000E-7	3.851071E-3
1.796500E-7	3.595818E-3
1.797000E-7	3.349130E-3
1.797500E-7	3.071606E-3
1.798000E-7	2.739263E-3
1.798500E-7	2.408633E-3
1.799000E-7	2.105412E-3
1.799500E-7	1.836454E-3
1.800000E-7	1.622315E-3
1.800500E-7	1.538373E-3
1.801000E-7	1.582914E-3
1.801500E-7	1.709684E-3
1.802000E-7	1.910118E-3
1.802500E-7	2.172223E-3
1.803000E-7	2.441182E-3
1.803500E-7	2.698148E-3
1.804000E-7	2.937984E-3
1.804500E-7	3.143557E-3
1.805000E-7	3.285745E-3
1.805500E-7	3.395384E-3
1.806000E-7	3.436499E-3
1.806500E-7	3.352556E-3
1.807000E-7	3.213794E-3
1.807500E-7	3.114434E-3
1.808000E-7	3.025352E-3
1.808500E-7	2.890017E-3
1.809000E-7	2.802648E-3
1.809500E-7	2.812927E-3
1.810000E-7	2.843763E-3
1.810500E-7	2.836910E-3
1.811000E-7	2.797509E-3
1.811500E-7	2.756394E-3
1.812000E-7	2.694722E-3
1.812500E-7	2.619345E-3
1.813000E-7	2.547395E-3
1.813500E-7	2.502854E-3
1.814000E-7	2.453174E-3
1.814500E-7	2.370944E-3
1.815000E-7	2.271584E-3
1.815500E-7	2.184215E-3
1.816000E-7	2.105412E-3
1.816500E-7	2.048880E-3
1.817000E-7	2.062584E-3
1.817500E-7	2.153379E-3
1.818000E-7	2.280149E-3
1.818500E-7	2.418911E-3
1.819000E-7	2.581657E-3
1.819500E-7	2.710140E-3
1.820000E-7	2.773525E-3
1.820500E-7	2.819779E-3
1.821000E-7	2.871172E-3
1.821500E-7	2.869459E-3
1.822000E-7	2.806074E-3
1.822500E-7	2.751255E-3
1.823000E-7	2.722132E-3
1.823500E-7	2.658747E-3
1.824000E-7	2.552534E-3
1.824500E-7	2.427477E-3
1.825000E-7	2.292141E-3
1.825500E-7	2.129396E-3
1.826000E-7	1.947806E-3
1.826500E-7	1.752512E-3
1.827000E-7	1.536660E-3
1.827500E-7	1.289972E-3
1.828000E-7	1.031292E-3
1.828500E-7	8.017355E-4
1.829000E-7	6.407031E-4
1.829500E-7	5.430559E-4
1.830000E-7	5.207854E-4
1.830500E-7	6.115803E-4
1.831000E-7	8.103010E-4
1.831500E-7	1.096390E-3
1.832000E-7	1.437299E-3
1.832500E-7	1.824462E-3
1.833000E-7	2.232182E-3
1.833500E-7	2.633050E-3
1.834000E-7	3.009934E-3
1.834500E-7	3.331999E-3
1.835000E-7	3.582113E-3
1.835500E-7	3.773981E-3
1.836000E-7	3.900751E-3
1.836500E-7	3.957284E-3
1.837000E-7	3.917883E-3
1.837500E-7	3.748285E-3
1.838000E-7	3.450204E-3
1.838500E-7	3.105868E-3
1.839000E-7	2.775238E-3
1.839500E-7	2.453174E-3
1.840000E-7	2.161945E-3
1.840500E-7	1.939241E-3
1.841000E-7	1.790200E-3
1.841500E-7	1.683987E-3
1.842000E-7	1.636020E-3
1.842500E-7	1.683987E-3
1.843000E-7	1.805618E-3
1.843500E-7	1.983781E-3
1.844000E-7	2.208199E-3
1.844500E-7	2.473731E-3
1.845000E-7	2.739263E-3
1.845500E-7	2.996229E-3
1.846000E-7	3.225786E-3
1.846500E-7	3.367974E-3
1.847000E-7	3.450204E-3
1.847500E-7	3.522154E-3
1.848000E-7	3.566695E-3
1.848500E-7	3.529007E-3
1.849000E-7	3.484466E-3
1.849500E-7	3.465622E-3
1.850000E-7	3.398810E-3
1.850500E-7	3.285745E-3
1.851000E-7	3.230925E-3
1.851500E-7	3.254909E-3
1.852000E-7	3.275466E-3
1.852500E-7	3.266901E-3
1.853000E-7	3.261761E-3
1.853500E-7	3.254909E-3
1.854000E-7	3.224073E-3
1.854500E-7	3.165827E-3
1.855000E-7	3.085311E-3
1.855500E-7	3.018500E-3
1.856000E-7	2.960254E-3
1.856500E-7	2.835197E-3
1.857000E-7	2.646755E-3
1.857500E-7	2.437756E-3
1.858000E-7	2.199633E-3
1.858500E-7	1.940954E-3
1.859000E-7	1.723389E-3
1.859500E-7	1.536660E-3
1.860000E-7	1.365349E-3
1.860500E-7	1.269415E-3
1.861000E-7	1.296824E-3
1.861500E-7	1.385906E-3
1.862000E-7	1.516102E-3
1.862500E-7	1.718249E-3
1.863000E-7	1.915257E-3
1.863500E-7	2.066011E-3
1.864000E-7	2.221904E-3
1.864500E-7	2.379510E-3
1.865000E-7	2.499428E-3
1.865500E-7	2.567952E-3
1.866000E-7	2.595362E-3
1.866500E-7	2.537116E-3
1.867000E-7	2.453174E-3
1.867500E-7	2.408633E-3
1.868000E-7	2.353813E-3
1.868500E-7	2.235609E-3
1.869000E-7	2.093420E-3
1.869500E-7	1.940954E-3
1.870000E-7	1.785061E-3
1.870500E-7	1.668569E-3
1.871000E-7	1.601758E-3
1.871500E-7	1.574348E-3
1.872000E-7	1.601758E-3
1.872500E-7	1.685700E-3
1.873000E-7	1.762790E-3
1.873500E-7	1.824462E-3
1.874000E-7	1.901552E-3
1.874500E-7	1.990634E-3
1.875000E-7	2.084855E-3
1.875500E-7	2.177363E-3
1.876000E-7	2.245887E-3
1.876500E-7	2.249313E-3
1.877000E-7	2.208199E-3
1.877500E-7	2.161945E-3
1.878000E-7	2.100273E-3
1.878500E-7	2.030035E-3
1.879000E-7	2.011191E-3
1.879500E-7	2.042027E-3
1.880000E-7	2.055732E-3
1.880500E-7	2.055732E-3
1.881000E-7	2.083142E-3
1.881500E-7	2.146527E-3
1.882000E-7	2.218477E-3
1.882500E-7	2.293854E-3
1.883000E-7	2.389788E-3
1.883500E-7	2.487436E-3
1.884000E-7	2.567952E-3
1.884500E-7	2.597075E-3
1.885000E-7	2.562813E-3
1.885500E-7	2.513132E-3
1.886000E-7	2.444608E-3
1.886500E-7	2.312699E-3
1.887000E-7	2.139674E-3
1.887500E-7	1.988921E-3
1.888000E-7	1.869003E-3
1.888500E-7	1.785061E-3
1.889000E-7	1.757651E-3
1.889500E-7	1.781634E-3
1.890000E-7	1.869003E-3
1.890500E-7	2.040314E-3
1.891000E-7	2.244174E-3
1.891500E-7	2.410346E-3
1.892000E-7	2.567952E-3
1.892500E-7	2.694722E-3
1.893000E-7	2.720419E-3
1.893500E-7	2.638189E-3
1.894000E-7	2.492575E-3
1.894500E-7	2.278436E-3
1.895000E-7	2.011191E-3
1.895500E-7	1.745659E-3
1.896000E-7	1.480127E-3
1.896500E-7	1.202603E-3
1.897000E-7	9.953169E-4
1.897500E-7	9.010959E-4
1.898000E-7	8.548419E-4
1.898500E-7	8.634074E-4
1.899000E-7	9.953169E-4
1.899500E-7	1.206029E-3
1.900000E-7	1.373914E-3
1.900500E-7	1.476701E-3
1.901000E-7	1.557217E-3
1.901500E-7	1.565783E-3
1.902000E-7	1.478414E-3
1.902500E-7	1.343078E-3
1.903000E-7	1.197464E-3
1.903500E-7	1.060415E-3
1.904000E-7	9.148007E-4
1.904500E-7	7.503422E-4
1.905000E-7	6.269983E-4
1.905500E-7	5.978754E-4
1.906000E-7	6.509818E-4
1.906500E-7	7.349242E-4
1.907000E-7	8.599812E-4
1.907500E-7	1.080972E-3
1.908000E-7	1.368775E-3
1.908500E-7	1.660004E-3
1.909000E-7	1.946093E-3
1.909500E-7	2.204773E-3
1.910000E-7	2.389788E-3
1.910500E-7	2.492575E-3
1.911000E-7	2.519985E-3
1.911500E-7	2.477157E-3
1.912000E-7	2.376084E-3
1.912500E-7	2.254453E-3
1.913000E-7	2.096847E-3
1.913500E-7	1.918683E-3
1.914000E-7	1.815897E-3
1.914500E-7	1.805618E-3
1.915000E-7	1.851872E-3
1.915500E-7	1.980355E-3
1.916000E-7	2.197920E-3
1.916500E-7	2.434329E-3
1.917000E-7	2.677591E-3
1.917500E-7	2.963680E-3
1.918000E-7	3.218934E-3
1.918500E-7	3.367974E-3
1.919000E-7	3.429646E-3
1.919500E-7	3.395384E-3
1.920000E-7	3.239491E-3
1.920500E-7	2.999656E-3
1.921000E-7	2.727271E-3
1.921500E-7	2.430903E-3
1.922000E-7	2.170510E-3
1.922500E-7	2.012904E-3
1.923000E-7	1.889560E-3
1.923500E-7	1.742233E-3
1.924000E-7	1.678848E-3
1.924500E-7	1.767930E-3
1.925000E-7	1.947806E-3
1.925500E-7	2.165371E-3
1.926000E-7	2.424051E-3
1.926500E-7	2.648468E-3
1.927000E-7	2.746115E-3
1.927500E-7	2.722132E-3
1.928000E-7	2.593649E-3
1.928500E-7	2.376084E-3
1.929000E-7	2.089994E-3
1.929500E-7	1.774782E-3
1.930000E-7	1.497258E-3
1.930500E-7	1.315668E-3
1.931000E-7	1.236865E-3
1.931500E-7	1.271128E-3
1.932000E-7	1.409890E-3
1.932500E-7	1.620602E-3
1.933000E-7	1.857011E-3
1.933500E-7	2.119117E-3
1.934000E-7	2.394928E-3
1.934500E-7	2.655321E-3
1.935000E-7	2.879738E-3
1.935500E-7	3.056188E-3
1.936000E-7	3.138418E-3
1.936500E-7	3.099016E-3
1.937000E-7	2.960254E-3
1.937500E-7	2.780378E-3
1.938000E-7	2.612493E-3
1.938500E-7	2.497714E-3
1.939000E-7	2.403493E-3
1.939500E-7	2.304133E-3
1.940000E-7	2.216764E-3
1.940500E-7	2.148240E-3
1.941000E-7	2.108838E-3
1.941500E-7	2.136248E-3
1.942000E-7	2.235609E-3
1.942500E-7	2.343534E-3
1.943000E-7	2.453174E-3
1.943500E-7	2.583370E-3
1.944000E-7	2.662173E-3
1.944500E-7	2.648468E-3
1.945000E-7	2.583370E-3
1.945500E-7	2.484010E-3
1.946000E-7	2.304133E-3
1.946500E-7	2.120830E-3
1.947000E-7	1.990634E-3
1.947500E-7	1.848446E-3
1.948000E-7	1.658290E-3
1.948500E-7	1.557217E-3
1.949000E-7	1.557217E-3
1.949500E-7	1.560643E-3
1.950000E-7	1.572635E-3
1.950500E-7	1.671995E-3
1.951000E-7	1.834741E-3
1.951500E-7	2.012904E-3
1.952000E-7	2.232182E-3
1.952500E-7	2.448034E-3
1.953000E-7	2.573091E-3
1.953500E-7	2.597075E-3
1.954000E-7	2.531977E-3
1.954500E-7	2.379510E-3
1.955000E-7	2.204773E-3
1.955500E-7	2.081429E-3
1.956000E-7	1.961511E-3
1.956500E-7	1.817610E-3
1.957000E-7	1.726815E-3
1.957500E-7	1.701118E-3
1.958000E-7	1.665143E-3
1.958500E-7	1.629168E-3
1.959000E-7	1.653151E-3
1.959500E-7	1.711397E-3
1.960000E-7	1.754225E-3
1.960500E-7	1.800479E-3
1.961000E-7	1.829601E-3
1.961500E-7	1.826175E-3
1.962000E-7	1.831315E-3
1.962500E-7	1.863864E-3
1.963000E-7	1.911831E-3
1.963500E-7	1.982068E-3
1.964000E-7	2.048880E-3
1.964500E-7	2.066011E-3
1.965000E-7	2.047166E-3
1.965500E-7	2.066011E-3
1.966000E-7	2.071150E-3
1.966500E-7	2.011191E-3
1.967000E-7	1.940954E-3
1.967500E-7	1.892987E-3
1.968000E-7	1.767930E-3
1.968500E-7	1.572635E-3
1.969000E-7	1.377340E-3
1.969500E-7	1.209456E-3
1.970000E-7	1.055276E-3
1.970500E-7	9.696203E-4
1.971000E-7	9.713334E-4
1.971500E-7	1.003882E-3
1.972000E-7	1.062128E-3
1.972500E-7	1.170054E-3
1.973000E-7	1.315668E-3
1.973500E-7	1.469848E-3
1.974000E-7	1.646299E-3
1.974500E-7	1.834741E-3
1.975000E-7	1.988921E-3
1.975500E-7	2.091707E-3
1.976000E-7	2.158519E-3
1.976500E-7	2.221904E-3
1.977000E-7	2.275010E-3
1.977500E-7	2.268158E-3
1.978000E-7	2.185928E-3
1.978500E-7	2.072863E-3
1.979000E-7	1.958085E-3
1.979500E-7	1.863864E-3
1.980000E-7	1.846733E-3
1.980500E-7	1.904978E-3
1.981000E-7	1.970077E-3
1.981500E-7	2.038601E-3
1.982000E-7	2.168797E-3
1.982500E-7	2.348674E-3
1.983000E-7	2.543968E-3
1.983500E-7	2.746115E-3
1.984000E-7	2.912287E-3
1.984500E-7	3.006508E-3
1.985000E-7	3.081885E-3
1.985500E-7	3.160688E-3
1.986000E-7	3.148696E-3
1.986500E-7	3.044196E-3
1.987000E-7	2.920853E-3
1.987500E-7	2.744402E-3
1.988000E-7	2.460026E-3
1.988500E-7	2.179076E-3
1.989000E-7	1.995773E-3
1.989500E-7	1.872429E-3
1.990000E-7	1.759364E-3
1.990500E-7	1.670282E-3
1.991000E-7	1.576061E-3
1.991500E-7	1.457857E-3
1.992000E-7	1.341365E-3
1.992500E-7	1.257423E-3
1.993000E-7	1.255710E-3
1.993500E-7	1.320808E-3
1.994000E-7	1.379054E-3
1.994500E-7	1.391045E-3
1.995000E-7	1.385906E-3
1.995500E-7	1.394472E-3
1.996000E-7	1.385906E-3
1.996500E-7	1.327660E-3
1.997000E-7	1.218021E-3
1.997500E-7	1.101530E-3
1.998000E-7	1.005596E-3
1.998500E-7	9.079483E-4
1.999000E-7	7.726126E-4
1.999500E-7	6.407031E-4
2.000000E-7	5.841705E-4
