Study Name	fullMap
Sample Name	CuCrAl
Run Name	spot00
Operator	Colin
Date	1/31/2024
Time	12:24 PM
Sign	FIX
Grating Spacing	06.40um
Channel	2
Number Traces	2000
Files in Batch	1
Batch Number	1
dt	50.000001E-12
time stamp (ms)	1:40:02 PM
	
Time	Amplitude
0.000000E+0	-3.083598E-5
5.000000E-11	9.079483E-5
1.000000E-10	1.833028E-4
1.500000E-10	2.175650E-4
2.000000E-10	1.952945E-4
2.500000E-10	1.541799E-4
3.000000E-10	4.968019E-5
3.500000E-10	-1.284833E-4
4.000000E-10	-2.809500E-4
4.500000E-10	-4.111464E-4
5.000000E-10	-5.875967E-4
5.500000E-10	-7.606208E-4
6.000000E-10	-8.428501E-4
6.500000E-10	-9.028090E-4
7.000000E-10	-1.003882E-3
7.500000E-10	-1.063841E-3
8.000000E-10	-1.050136E-3
8.500000E-10	-1.009022E-3
9.000000E-10	-9.524892E-4
9.500000E-10	-8.531288E-4
1.000000E-9	-7.246455E-4
1.050000E-9	-5.704656E-4
1.100000E-9	-4.025809E-4
1.150000E-9	-2.997943E-4
1.200000E-9	-2.860894E-4
1.250000E-9	-3.323433E-4
1.300000E-9	-4.454086E-4
1.350000E-9	-6.201458E-4
1.400000E-9	-8.068748E-4
1.450000E-9	-1.012448E-3
1.500000E-9	-1.223161E-3
1.550000E-9	-1.331086E-3
1.600000E-9	-1.320808E-3
1.650000E-9	-1.276267E-3
1.700000E-9	-1.171767E-3
1.750000E-9	-9.593416E-4
1.800000E-9	-7.263586E-4
1.850000E-9	-5.533345E-4
1.900000E-9	-4.042940E-4
1.950000E-9	-3.015074E-4
2.000000E-9	-3.186385E-4
2.050000E-9	-4.488348E-4
2.100000E-9	-6.372769E-4
2.150000E-9	-8.771123E-4
2.200000E-9	-1.168341E-3
2.250000E-9	-1.452717E-3
2.300000E-9	-1.675422E-3
2.350000E-9	-1.793626E-3
2.400000E-9	-1.785061E-3
2.450000E-9	-1.661717E-3
2.500000E-9	-1.433873E-3
2.550000E-9	-1.108382E-3
2.600000E-9	-6.835309E-4
2.650000E-9	-1.952945E-4
2.700000E-9	2.878025E-4
2.750000E-9	7.400635E-4
2.800000E-9	1.113522E-3
2.850000E-9	1.322521E-3
2.900000E-9	1.339652E-3
2.950000E-9	1.238579E-3
3.000000E-9	1.103243E-3
3.050000E-9	9.353581E-4
3.100000E-9	7.400635E-4
3.150000E-9	5.516214E-4
3.200000E-9	4.179988E-4
3.250000E-9	3.357696E-4
3.300000E-9	3.066467E-4
3.350000E-9	3.340565E-4
3.400000E-9	4.317037E-4
3.450000E-9	5.687525E-4
3.500000E-9	7.006620E-4
3.550000E-9	7.931699E-4
3.600000E-9	8.000224E-4
3.650000E-9	7.075144E-4
3.700000E-9	5.259248E-4
3.750000E-9	2.586796E-4
3.800000E-9	-8.222928E-5
3.850000E-9	-4.505479E-4
3.900000E-9	-7.931699E-4
3.950000E-9	-1.098104E-3
4.000000E-9	-1.332800E-3
4.050000E-9	-1.449291E-3
4.100000E-9	-1.432160E-3
4.150000E-9	-1.327660E-3
4.200000E-9	-1.159775E-3
4.250000E-9	-9.199401E-4
4.300000E-9	-5.910230E-4
4.350000E-9	-2.364092E-4
4.400000E-9	8.051617E-5
4.450000E-9	3.494744E-4
4.500000E-9	5.738919E-4
4.550000E-9	7.400635E-4
4.600000E-9	8.377108E-4
4.650000E-9	8.822517E-4
4.700000E-9	8.428501E-4
4.750000E-9	6.732522E-4
4.800000E-9	4.539742E-4
4.850000E-9	2.552534E-4
4.900000E-9	5.481952E-5
4.950000E-9	-1.164915E-4
5.000000E-9	-1.952945E-4
5.050000E-9	-2.432616E-4
5.100000E-9	-3.015074E-4
5.150000E-9	-3.083598E-4
5.200000E-9	-2.603927E-4
5.250000E-9	-2.535403E-4
5.300000E-9	-2.895156E-4
5.350000E-9	-3.100729E-4
5.400000E-9	-3.066467E-4
5.450000E-9	-3.289171E-4
5.500000E-9	-3.768842E-4
5.550000E-9	-4.145726E-4
5.600000E-9	-4.368431E-4
5.650000E-9	-4.728184E-4
5.700000E-9	-5.293510E-4
5.750000E-9	-5.653263E-4
5.800000E-9	-5.293510E-4
5.850000E-9	-4.522610E-4
5.900000E-9	-3.734580E-4
5.950000E-9	-3.117860E-4
6.000000E-9	-2.586796E-4
6.050000E-9	-1.901552E-4
6.100000E-9	-1.164915E-4
6.150000E-9	-2.569665E-5
6.200000E-9	1.421881E-4
6.250000E-9	3.648924E-4
6.300000E-9	5.670394E-4
6.350000E-9	8.137273E-4
6.400000E-9	1.146071E-3
6.450000E-9	1.403037E-3
6.500000E-9	1.485266E-3
6.550000E-9	1.493832E-3
6.600000E-9	1.471561E-3
6.650000E-9	1.303677E-3
6.700000E-9	9.987431E-4
6.750000E-9	6.681129E-4
6.800000E-9	3.272040E-4
6.850000E-9	-5.824574E-5
6.900000E-9	-4.419824E-4
6.950000E-9	-7.726126E-4
7.000000E-9	-1.031292E-3
7.050000E-9	-1.185472E-3
7.100000E-9	-1.223161E-3
7.150000E-9	-1.156349E-3
7.200000E-9	-9.833251E-4
7.250000E-9	-7.383504E-4
7.300000E-9	-4.916626E-4
7.350000E-9	-2.672452E-4
7.400000E-9	-7.708995E-5
7.450000E-9	7.366373E-5
7.500000E-9	2.004339E-4
7.550000E-9	3.169254E-4
7.600000E-9	3.837366E-4
7.650000E-9	3.803104E-4
7.700000E-9	3.340565E-4
7.750000E-9	2.638189E-4
7.800000E-9	1.439012E-4
7.850000E-9	6.852440E-6
7.900000E-9	-1.062128E-4
7.950000E-9	-1.935814E-4
8.000000E-9	-2.895156E-4
8.050000E-9	-3.991546E-4
8.100000E-9	-5.447690E-4
8.150000E-9	-7.160800E-4
8.200000E-9	-8.753992E-4
8.250000E-9	-1.017587E-3
8.300000E-9	-1.146071E-3
8.350000E-9	-1.231726E-3
8.400000E-9	-1.248857E-3
8.450000E-9	-1.238579E-3
8.500000E-9	-1.204316E-3
8.550000E-9	-1.082686E-3
8.600000E-9	-9.250794E-4
8.650000E-9	-8.137273E-4
8.700000E-9	-7.109407E-4
8.750000E-9	-5.875967E-4
8.800000E-9	-4.950888E-4
8.850000E-9	-4.505479E-4
8.900000E-9	-4.265644E-4
8.950000E-9	-4.608266E-4
9.000000E-9	-5.567608E-4
9.050000E-9	-6.441294E-4
9.100000E-9	-7.229324E-4
9.150000E-9	-8.582681E-4
9.200000E-9	-9.987431E-4
9.250000E-9	-1.086112E-3
9.300000E-9	-1.147784E-3
9.350000E-9	-1.185472E-3
9.400000E-9	-1.161489E-3
9.450000E-9	-1.091251E-3
9.500000E-9	-1.024440E-3
9.550000E-9	-9.696203E-4
9.600000E-9	-9.079483E-4
9.650000E-9	-8.514157E-4
9.700000E-9	-7.828913E-4
9.750000E-9	-6.920964E-4
9.800000E-9	-5.875967E-4
9.850000E-9	-5.139330E-4
9.900000E-9	-4.848101E-4
9.950000E-9	-4.865232E-4
1.000000E-8	-5.070806E-4
1.005000E-8	-5.002281E-4
1.010000E-8	-4.265644E-4
1.015000E-8	-3.152122E-4
1.020000E-8	-2.278436E-4
1.025000E-8	-1.284833E-4
1.030000E-8	2.055732E-5
1.035000E-8	1.952945E-4
1.040000E-8	3.648924E-4
1.045000E-8	5.276379E-4
1.050000E-8	6.561211E-4
1.055000E-8	6.920964E-4
1.060000E-8	6.372769E-4
1.065000E-8	5.276379E-4
1.070000E-8	3.785973E-4
1.075000E-8	1.747372E-4
1.080000E-8	-1.113522E-4
1.085000E-8	-4.642528E-4
1.090000E-8	-7.983093E-4
1.095000E-8	-1.082686E-3
1.100000E-8	-1.353357E-3
1.105000E-8	-1.612037E-3
1.110000E-8	-1.790200E-3
1.115000E-8	-1.877569E-3
1.120000E-8	-1.875855E-3
1.125000E-8	-1.755938E-3
1.130000E-8	-1.533233E-3
1.135000E-8	-1.277980E-3
1.140000E-8	-9.953169E-4
1.145000E-8	-6.920964E-4
1.150000E-8	-3.803104E-4
1.155000E-8	-9.250794E-5
1.160000E-8	1.473275E-4
1.165000E-8	2.860894E-4
1.170000E-8	3.323433E-4
1.175000E-8	3.220647E-4
1.180000E-8	2.621058E-4
1.185000E-8	1.336226E-4
1.190000E-8	-1.370488E-5
1.195000E-8	-1.199177E-4
1.200000E-8	-1.678848E-4
1.205000E-8	-1.593192E-4
1.210000E-8	-1.010735E-4
1.215000E-8	6.852440E-6
1.220000E-8	1.593192E-4
1.225000E-8	3.272040E-4
1.230000E-8	4.848101E-4
1.235000E-8	6.218589E-4
1.240000E-8	7.503422E-4
1.245000E-8	8.428501E-4
1.250000E-8	8.651206E-4
1.255000E-8	8.377108E-4
1.260000E-8	7.965962E-4
1.265000E-8	7.606208E-4
1.270000E-8	7.195062E-4
1.275000E-8	6.749653E-4
1.280000E-8	6.407031E-4
1.285000E-8	6.132934E-4
1.290000E-8	5.756050E-4
1.295000E-8	5.344903E-4
1.300000E-8	4.916626E-4
1.305000E-8	4.197120E-4
1.310000E-8	3.049336E-4
1.315000E-8	1.507537E-4
1.320000E-8	0.000000E+0
1.325000E-8	-1.558930E-4
1.330000E-8	-3.529007E-4
1.335000E-8	-5.721787E-4
1.340000E-8	-7.452029E-4
1.345000E-8	-8.805385E-4
1.350000E-8	-1.009022E-3
1.355000E-8	-1.132366E-3
1.360000E-8	-1.231726E-3
1.365000E-8	-1.295111E-3
1.370000E-8	-1.274554E-3
1.375000E-8	-1.171767E-3
1.380000E-8	-1.043284E-3
1.385000E-8	-8.993828E-4
1.390000E-8	-7.400635E-4
1.395000E-8	-5.961623E-4
1.400000E-8	-4.574004E-4
1.405000E-8	-3.049336E-4
1.410000E-8	-1.713110E-4
1.415000E-8	-9.593416E-5
1.420000E-8	-5.995885E-5
1.425000E-8	-6.338507E-5
1.430000E-8	-1.216308E-4
1.435000E-8	-1.987208E-4
1.440000E-8	-2.809500E-4
1.445000E-8	-3.751711E-4
1.450000E-8	-4.505479E-4
1.455000E-8	-4.848101E-4
1.460000E-8	-5.122199E-4
1.465000E-8	-5.447690E-4
1.470000E-8	-5.619001E-4
1.475000E-8	-5.413428E-4
1.480000E-8	-4.711053E-4
1.485000E-8	-3.888760E-4
1.490000E-8	-3.597531E-4
1.495000E-8	-3.666055E-4
1.500000E-8	-3.683187E-4
1.505000E-8	-3.614662E-4
1.510000E-8	-3.529007E-4
1.515000E-8	-3.340565E-4
1.520000E-8	-3.357696E-4
1.525000E-8	-3.374827E-4
1.530000E-8	-2.706714E-4
1.535000E-8	-1.833028E-4
1.540000E-8	-1.507537E-4
1.545000E-8	-9.593416E-5
1.550000E-8	4.796708E-5
1.555000E-8	1.935814E-4
1.560000E-8	2.946549E-4
1.565000E-8	4.111464E-4
1.570000E-8	5.087937E-4
1.575000E-8	5.139330E-4
1.580000E-8	4.676790E-4
1.585000E-8	3.768842E-4
1.590000E-8	2.141388E-4
1.595000E-8	-3.426220E-6
1.600000E-8	-2.278436E-4
1.605000E-8	-4.762446E-4
1.610000E-8	-7.212193E-4
1.615000E-8	-9.199401E-4
1.620000E-8	-1.084399E-3
1.625000E-8	-1.204316E-3
1.630000E-8	-1.221447E-3
1.635000E-8	-1.171767E-3
1.640000E-8	-1.154636E-3
1.645000E-8	-1.134079E-3
1.650000E-8	-1.044997E-3
1.655000E-8	-9.439236E-4
1.660000E-8	-8.634074E-4
1.665000E-8	-7.503422E-4
1.670000E-8	-5.858836E-4
1.675000E-8	-4.265644E-4
1.680000E-8	-2.878025E-4
1.685000E-8	-1.096390E-4
1.690000E-8	1.387619E-4
1.695000E-8	4.419824E-4
1.700000E-8	7.965962E-4
1.705000E-8	1.223161E-3
1.710000E-8	1.750798E-3
1.715000E-8	2.408633E-3
1.720000E-8	3.200089E-3
1.725000E-8	4.120030E-3
1.730000E-8	5.134191E-3
1.735000E-8	6.218589E-3
1.740000E-8	7.335537E-3
1.745000E-8	8.447345E-3
1.750000E-8	9.497482E-3
1.755000E-8	1.048766E-2
1.760000E-8	1.140589E-2
1.765000E-8	1.223332E-2
1.770000E-8	1.295111E-2
1.775000E-8	1.360552E-2
1.780000E-8	1.421196E-2
1.785000E-8	1.474474E-2
1.790000E-8	1.526724E-2
1.795000E-8	1.584113E-2
1.800000E-8	1.643386E-2
1.805000E-8	1.705572E-2
1.810000E-8	1.778551E-2
1.815000E-8	1.861465E-2
1.820000E-8	1.943523E-2
1.825000E-8	2.018900E-2
1.830000E-8	2.084855E-2
1.835000E-8	2.133850E-2
1.840000E-8	2.162973E-2
1.845000E-8	2.165885E-2
1.850000E-8	2.143272E-2
1.855000E-8	2.098217E-2
1.860000E-8	2.036545E-2
1.865000E-8	1.961340E-2
1.870000E-8	1.871059E-2
1.875000E-8	1.774268E-2
1.880000E-8	1.674394E-2
1.885000E-8	1.570579E-2
1.890000E-8	1.469334E-2
1.895000E-8	1.376827E-2
1.900000E-8	1.292884E-2
1.905000E-8	1.217507E-2
1.910000E-8	1.160803E-2
1.915000E-8	1.124657E-2
1.920000E-8	1.104271E-2
1.925000E-8	1.096733E-2
1.930000E-8	1.104271E-2
1.935000E-8	1.130481E-2
1.940000E-8	1.174166E-2
1.945000E-8	1.233097E-2
1.950000E-8	1.305561E-2
1.955000E-8	1.393958E-2
1.960000E-8	1.497943E-2
1.965000E-8	1.611009E-2
1.970000E-8	1.726644E-2
1.975000E-8	1.845362E-2
1.980000E-8	1.961511E-2
1.985000E-8	2.064983E-2
1.990000E-8	2.152523E-2
1.995000E-8	2.220191E-2
2.000000E-8	2.257536E-2
2.005000E-8	2.264389E-2
2.010000E-8	2.245716E-2
2.015000E-8	2.201175E-2
2.020000E-8	2.123057E-2
2.025000E-8	2.014617E-2
2.030000E-8	1.887847E-2
2.035000E-8	1.751484E-2
2.040000E-8	1.612893E-2
2.045000E-8	1.477215E-2
2.050000E-8	1.352672E-2
2.055000E-8	1.238236E-2
2.060000E-8	1.128939E-2
2.065000E-8	1.037117E-2
2.070000E-8	9.800702E-3
2.075000E-8	9.548875E-3
2.080000E-8	9.509474E-3
2.085000E-8	9.672219E-3
2.090000E-8	1.009536E-2
2.095000E-8	1.072236E-2
2.100000E-8	1.149154E-2
2.105000E-8	1.236009E-2
2.110000E-8	1.331258E-2
2.115000E-8	1.427021E-2
2.120000E-8	1.514047E-2
2.125000E-8	1.588396E-2
2.130000E-8	1.654522E-2
2.135000E-8	1.712767E-2
2.140000E-8	1.759364E-2
2.145000E-8	1.792598E-2
2.150000E-8	1.815383E-2
2.155000E-8	1.829088E-2
2.160000E-8	1.835597E-2
2.165000E-8	1.837996E-2
2.170000E-8	1.839024E-2
2.175000E-8	1.838681E-2
2.180000E-8	1.836111E-2
2.185000E-8	1.829944E-2
2.190000E-8	1.823948E-2
2.195000E-8	1.818295E-2
2.200000E-8	1.810586E-2
2.205000E-8	1.798423E-2
2.210000E-8	1.784375E-2
2.215000E-8	1.767416E-2
2.220000E-8	1.746002E-2
2.225000E-8	1.716194E-2
2.230000E-8	1.674565E-2
2.235000E-8	1.620088E-2
2.240000E-8	1.559444E-2
2.245000E-8	1.501198E-2
2.250000E-8	1.450490E-2
2.255000E-8	1.402523E-2
2.260000E-8	1.354213E-2
2.265000E-8	1.307788E-2
2.270000E-8	1.271642E-2
2.275000E-8	1.245945E-2
2.280000E-8	1.230527E-2
2.285000E-8	1.224874E-2
2.290000E-8	1.234638E-2
2.295000E-8	1.260164E-2
2.300000E-8	1.295282E-2
2.305000E-8	1.335712E-2
2.310000E-8	1.383850E-2
2.315000E-8	1.437642E-2
2.320000E-8	1.496402E-2
2.325000E-8	1.556360E-2
2.330000E-8	1.619746E-2
2.335000E-8	1.683645E-2
2.340000E-8	1.741719E-2
2.345000E-8	1.791742E-2
2.350000E-8	1.843135E-2
2.355000E-8	1.892987E-2
2.360000E-8	1.938898E-2
2.365000E-8	1.977786E-2
2.370000E-8	2.010506E-2
2.375000E-8	2.035346E-2
2.380000E-8	2.046824E-2
2.385000E-8	2.036716E-2
2.390000E-8	2.001084E-2
2.395000E-8	1.948149E-2
2.400000E-8	1.878939E-2
2.405000E-8	1.792770E-2
2.410000E-8	1.691011E-2
2.415000E-8	1.585312E-2
2.420000E-8	1.481155E-2
2.425000E-8	1.378711E-2
2.430000E-8	1.274896E-2
2.435000E-8	1.181875E-2
2.440000E-8	1.112665E-2
2.445000E-8	1.065726E-2
2.450000E-8	1.032663E-2
2.455000E-8	1.013133E-2
2.460000E-8	1.017416E-2
2.465000E-8	1.044826E-2
2.470000E-8	1.092108E-2
2.475000E-8	1.156863E-2
2.480000E-8	1.239092E-2
2.485000E-8	1.332971E-2
2.490000E-8	1.434901E-2
2.495000E-8	1.540600E-2
2.500000E-8	1.646813E-2
2.505000E-8	1.749771E-2
2.510000E-8	1.845705E-2
2.515000E-8	1.925878E-2
2.520000E-8	1.987208E-2
2.525000E-8	2.027808E-2
2.530000E-8	2.046139E-2
2.535000E-8	2.037744E-2
2.540000E-8	2.006223E-2
2.545000E-8	1.955858E-2
2.550000E-8	1.888704E-2
2.555000E-8	1.805104E-2
2.560000E-8	1.713110E-2
2.565000E-8	1.619232E-2
2.570000E-8	1.528608E-2
2.575000E-8	1.447064E-2
2.580000E-8	1.382137E-2
2.585000E-8	1.333142E-2
2.590000E-8	1.298366E-2
2.595000E-8	1.281235E-2
2.600000E-8	1.277295E-2
2.605000E-8	1.280207E-2
2.610000E-8	1.285004E-2
2.615000E-8	1.292884E-2
2.620000E-8	1.305047E-2
2.625000E-8	1.321322E-2
2.630000E-8	1.339823E-2
2.635000E-8	1.356783E-2
2.640000E-8	1.373572E-2
2.645000E-8	1.393101E-2
2.650000E-8	1.414515E-2
2.655000E-8	1.435929E-2
2.660000E-8	1.460255E-2
2.665000E-8	1.486123E-2
2.670000E-8	1.514732E-2
2.675000E-8	1.546767E-2
2.680000E-8	1.583428E-2
2.685000E-8	1.624200E-2
2.690000E-8	1.667370E-2
2.695000E-8	1.706943E-2
2.700000E-8	1.737436E-2
2.705000E-8	1.760734E-2
2.710000E-8	1.781977E-2
2.715000E-8	1.798423E-2
2.720000E-8	1.804933E-2
2.725000E-8	1.802363E-2
2.730000E-8	1.795853E-2
2.735000E-8	1.785403E-2
2.740000E-8	1.771356E-2
2.745000E-8	1.750113E-2
2.750000E-8	1.716879E-2
2.755000E-8	1.677991E-2
2.760000E-8	1.643215E-2
2.765000E-8	1.609638E-2
2.770000E-8	1.566296E-2
2.775000E-8	1.515588E-2
2.780000E-8	1.465394E-2
2.785000E-8	1.415885E-2
2.790000E-8	1.365349E-2
2.795000E-8	1.316011E-2
2.800000E-8	1.271470E-2
2.805000E-8	1.235324E-2
2.810000E-8	1.209627E-2
2.815000E-8	1.190269E-2
2.820000E-8	1.175879E-2
2.825000E-8	1.172966E-2
2.830000E-8	1.186843E-2
2.835000E-8	1.214766E-2
2.840000E-8	1.257080E-2
2.845000E-8	1.314469E-2
2.850000E-8	1.385735E-2
2.855000E-8	1.467450E-2
2.860000E-8	1.560129E-2
2.865000E-8	1.661031E-2
2.870000E-8	1.765531E-2
2.875000E-8	1.870545E-2
2.880000E-8	1.969563E-2
2.885000E-8	2.053334E-2
2.890000E-8	2.118946E-2
2.895000E-8	2.161431E-2
2.900000E-8	2.175821E-2
2.905000E-8	2.165714E-2
2.910000E-8	2.132993E-2
2.915000E-8	2.073720E-2
2.920000E-8	1.988235E-2
2.925000E-8	1.882708E-2
2.930000E-8	1.764503E-2
2.935000E-8	1.635506E-2
2.940000E-8	1.497258E-2
2.945000E-8	1.362436E-2
2.950000E-8	1.243547E-2
2.955000E-8	1.140246E-2
2.960000E-8	1.048081E-2
2.965000E-8	9.773293E-3
2.970000E-8	9.386130E-3
2.975000E-8	9.255933E-3
2.980000E-8	9.264499E-3
2.985000E-8	9.451228E-3
2.990000E-8	9.896637E-3
2.995000E-8	1.048423E-2
3.000000E-8	1.114892E-2
3.005000E-8	1.196436E-2
3.010000E-8	1.291685E-2
3.015000E-8	1.386763E-2
3.020000E-8	1.475330E-2
3.025000E-8	1.565783E-2
3.030000E-8	1.654522E-2
3.035000E-8	1.732126E-2
3.040000E-8	1.799793E-2
3.045000E-8	1.858039E-2
3.050000E-8	1.902066E-2
3.055000E-8	1.928105E-2
3.060000E-8	1.940440E-2
3.065000E-8	1.939241E-2
3.070000E-8	1.921938E-2
3.075000E-8	1.887505E-2
3.080000E-8	1.840223E-2
3.085000E-8	1.789001E-2
3.090000E-8	1.737436E-2
3.095000E-8	1.683473E-2
3.100000E-8	1.628996E-2
3.105000E-8	1.579145E-2
3.110000E-8	1.535974E-2
3.115000E-8	1.497943E-2
3.120000E-8	1.461283E-2
3.125000E-8	1.422738E-2
3.130000E-8	1.383336E-2
3.135000E-8	1.351986E-2
3.140000E-8	1.330059E-2
3.145000E-8	1.310529E-2
3.150000E-8	1.292028E-2
3.155000E-8	1.273355E-2
3.160000E-8	1.252112E-2
3.165000E-8	1.233268E-2
3.170000E-8	1.223332E-2
3.175000E-8	1.217850E-2
3.180000E-8	1.214766E-2
3.185000E-8	1.221447E-2
3.190000E-8	1.235666E-2
3.195000E-8	1.250913E-2
3.200000E-8	1.270956E-2
3.205000E-8	1.304362E-2
3.210000E-8	1.341194E-2
3.215000E-8	1.377512E-2
3.220000E-8	1.415714E-2
3.225000E-8	1.456829E-2
3.230000E-8	1.501027E-2
3.235000E-8	1.546082E-2
3.240000E-8	1.593021E-2
3.245000E-8	1.642701E-2
3.250000E-8	1.693238E-2
3.255000E-8	1.743261E-2
3.260000E-8	1.788316E-2
3.265000E-8	1.826175E-2
3.270000E-8	1.854442E-2
3.275000E-8	1.867975E-2
3.280000E-8	1.862493E-2
3.285000E-8	1.834056E-2
3.290000E-8	1.786088E-2
3.295000E-8	1.724245E-2
3.300000E-8	1.651095E-2
3.305000E-8	1.562356E-2
3.310000E-8	1.457857E-2
3.315000E-8	1.346333E-2
3.320000E-8	1.235495E-2
3.325000E-8	1.126541E-2
3.330000E-8	1.022898E-2
3.335000E-8	9.386130E-3
3.340000E-8	8.836221E-3
3.345000E-8	8.548419E-3
3.350000E-8	8.495313E-3
3.355000E-8	8.704312E-3
3.360000E-8	9.195975E-3
3.365000E-8	9.944604E-3
3.370000E-8	1.087140E-2
3.375000E-8	1.190783E-2
3.380000E-8	1.301621E-2
3.385000E-8	1.416913E-2
3.390000E-8	1.529979E-2
3.395000E-8	1.633108E-2
3.400000E-8	1.723217E-2
3.405000E-8	1.802877E-2
3.410000E-8	1.874656E-2
3.415000E-8	1.934273E-2
3.420000E-8	1.972817E-2
3.425000E-8	1.986865E-2
3.430000E-8	1.989263E-2
3.435000E-8	1.981554E-2
3.440000E-8	1.957057E-2
3.445000E-8	1.916799E-2
3.450000E-8	1.867290E-2
3.455000E-8	1.803220E-2
3.460000E-8	1.720819E-2
3.465000E-8	1.631223E-2
3.470000E-8	1.538715E-2
3.475000E-8	1.437299E-2
3.480000E-8	1.329373E-2
3.485000E-8	1.230013E-2
3.490000E-8	1.142816E-2
3.495000E-8	1.068295E-2
3.500000E-8	1.013990E-2
3.505000E-8	9.857235E-3
3.510000E-8	9.834965E-3
3.515000E-8	1.007823E-2
3.520000E-8	1.057503E-2
3.525000E-8	1.124314E-2
3.530000E-8	1.201404E-2
3.535000E-8	1.289287E-2
3.540000E-8	1.381623E-2
3.545000E-8	1.466422E-2
3.550000E-8	1.540086E-2
3.555000E-8	1.611694E-2
3.560000E-8	1.677820E-2
3.565000E-8	1.722875E-2
3.570000E-8	1.747201E-2
3.575000E-8	1.766559E-2
3.580000E-8	1.778208E-2
3.585000E-8	1.771356E-2
3.590000E-8	1.751826E-2
3.595000E-8	1.732468E-2
3.600000E-8	1.714138E-2
3.605000E-8	1.693923E-2
3.610000E-8	1.672338E-2
3.615000E-8	1.651267E-2
3.620000E-8	1.632936E-2
3.625000E-8	1.616662E-2
3.630000E-8	1.603985E-2
3.635000E-8	1.592164E-2
3.640000E-8	1.581029E-2
3.645000E-8	1.570751E-2
3.650000E-8	1.557388E-2
3.655000E-8	1.538887E-2
3.660000E-8	1.513533E-2
3.665000E-8	1.482697E-2
3.670000E-8	1.447064E-2
3.675000E-8	1.411260E-2
3.680000E-8	1.376827E-2
3.685000E-8	1.343421E-2
3.690000E-8	1.305561E-2
3.695000E-8	1.263761E-2
3.700000E-8	1.228642E-2
3.705000E-8	1.205516E-2
3.710000E-8	1.190098E-2
3.715000E-8	1.181532E-2
3.720000E-8	1.179990E-2
3.725000E-8	1.185643E-2
3.730000E-8	1.205516E-2
3.735000E-8	1.243204E-2
3.740000E-8	1.291171E-2
3.745000E-8	1.345134E-2
3.750000E-8	1.407149E-2
3.755000E-8	1.481840E-2
3.760000E-8	1.563042E-2
3.765000E-8	1.641673E-2
3.770000E-8	1.718078E-2
3.775000E-8	1.793797E-2
3.780000E-8	1.862665E-2
3.785000E-8	1.914229E-2
3.790000E-8	1.949519E-2
3.795000E-8	1.970933E-2
3.800000E-8	1.974017E-2
3.805000E-8	1.957913E-2
3.810000E-8	1.927077E-2
3.815000E-8	1.881509E-2
3.820000E-8	1.819837E-2
3.825000E-8	1.745316E-2
3.830000E-8	1.654693E-2
3.835000E-8	1.547795E-2
3.840000E-8	1.436614E-2
3.845000E-8	1.331086E-2
3.850000E-8	1.230184E-2
3.855000E-8	1.132366E-2
3.860000E-8	1.044483E-2
3.865000E-8	9.715047E-3
3.870000E-8	9.137729E-3
3.875000E-8	8.753992E-3
3.880000E-8	8.575829E-3
3.885000E-8	8.574116E-3
3.890000E-8	8.774549E-3
3.895000E-8	9.214819E-3
3.900000E-8	9.869227E-3
3.905000E-8	1.072236E-2
3.910000E-8	1.175536E-2
3.915000E-8	1.288087E-2
3.920000E-8	1.399097E-2
3.925000E-8	1.509593E-2
3.930000E-8	1.618889E-2
3.935000E-8	1.719449E-2
3.940000E-8	1.800136E-2
3.945000E-8	1.858210E-2
3.950000E-8	1.894700E-2
3.955000E-8	1.909261E-2
3.960000E-8	1.900182E-2
3.965000E-8	1.865405E-2
3.970000E-8	1.812813E-2
3.975000E-8	1.751826E-2
3.980000E-8	1.686043E-2
3.985000E-8	1.616148E-2
3.990000E-8	1.545910E-2
3.995000E-8	1.478928E-2
4.000000E-8	1.416571E-2
4.005000E-8	1.356098E-2
4.010000E-8	1.298366E-2
4.015000E-8	1.247658E-2
4.020000E-8	1.207229E-2
4.025000E-8	1.172624E-2
4.030000E-8	1.142987E-2
4.035000E-8	1.126541E-2
4.040000E-8	1.124999E-2
4.045000E-8	1.127226E-2
4.050000E-8	1.132194E-2
4.055000E-8	1.146242E-2
4.060000E-8	1.170911E-2
4.065000E-8	1.200890E-2
4.070000E-8	1.232411E-2
4.075000E-8	1.266331E-2
4.080000E-8	1.299565E-2
4.085000E-8	1.330059E-2
4.090000E-8	1.359353E-2
4.095000E-8	1.388476E-2
4.100000E-8	1.417085E-2
4.105000E-8	1.443466E-2
4.110000E-8	1.465566E-2
4.115000E-8	1.487836E-2
4.120000E-8	1.514047E-2
4.125000E-8	1.541970E-2
4.130000E-8	1.567496E-2
4.135000E-8	1.590451E-2
4.140000E-8	1.612893E-2
4.145000E-8	1.628825E-2
4.150000E-8	1.636705E-2
4.155000E-8	1.643729E-2
4.160000E-8	1.648354E-2
4.165000E-8	1.641502E-2
4.170000E-8	1.621287E-2
4.175000E-8	1.593192E-2
4.180000E-8	1.554305E-2
4.185000E-8	1.503768E-2
4.190000E-8	1.450833E-2
4.195000E-8	1.393786E-2
4.200000E-8	1.329545E-2
4.205000E-8	1.263761E-2
4.210000E-8	1.201404E-2
4.215000E-8	1.136135E-2
4.220000E-8	1.072064E-2
4.225000E-8	1.016388E-2
4.230000E-8	9.672219E-3
4.235000E-8	9.233663E-3
4.240000E-8	8.909885E-3
4.245000E-8	8.738574E-3
4.250000E-8	8.724869E-3
4.255000E-8	8.861918E-3
4.260000E-8	9.141155E-3
4.265000E-8	9.566006E-3
4.270000E-8	1.017073E-2
4.275000E-8	1.092622E-2
4.280000E-8	1.176050E-2
4.285000E-8	1.271299E-2
4.290000E-8	1.380253E-2
4.295000E-8	1.495202E-2
4.300000E-8	1.606555E-2
4.305000E-8	1.709512E-2
4.310000E-8	1.798937E-2
4.315000E-8	1.872601E-2
4.320000E-8	1.930332E-2
4.325000E-8	1.967164E-2
4.330000E-8	1.979841E-2
4.335000E-8	1.971790E-2
4.340000E-8	1.942667E-2
4.345000E-8	1.887847E-2
4.350000E-8	1.813841E-2
4.355000E-8	1.732639E-2
4.360000E-8	1.642187E-2
4.365000E-8	1.541114E-2
4.370000E-8	1.438498E-2
4.375000E-8	1.345648E-2
4.380000E-8	1.260849E-2
4.385000E-8	1.182217E-2
4.390000E-8	1.118318E-2
4.395000E-8	1.074120E-2
4.400000E-8	1.047395E-2
4.405000E-8	1.034205E-2
4.410000E-8	1.032834E-2
4.415000E-8	1.043455E-2
4.420000E-8	1.065383E-2
4.425000E-8	1.099131E-2
4.430000E-8	1.146242E-2
4.435000E-8	1.204488E-2
4.440000E-8	1.271128E-2
4.445000E-8	1.343763E-2
4.450000E-8	1.419654E-2
4.455000E-8	1.495202E-2
4.460000E-8	1.567838E-2
4.465000E-8	1.637733E-2
4.470000E-8	1.703859E-2
4.475000E-8	1.759193E-2
4.480000E-8	1.799108E-2
4.485000E-8	1.825147E-2
4.490000E-8	1.835940E-2
4.495000E-8	1.827032E-2
4.500000E-8	1.801678E-2
4.505000E-8	1.765874E-2
4.510000E-8	1.719277E-2
4.515000E-8	1.661888E-2
4.520000E-8	1.599873E-2
4.525000E-8	1.536831E-2
4.530000E-8	1.471219E-2
4.535000E-8	1.408519E-2
4.540000E-8	1.349759E-2
4.545000E-8	1.293227E-2
4.550000E-8	1.240120E-2
4.555000E-8	1.190783E-2
4.560000E-8	1.141445E-2
4.565000E-8	1.099645E-2
4.570000E-8	1.070351E-2
4.575000E-8	1.049451E-2
4.580000E-8	1.036432E-2
4.585000E-8	1.036432E-2
4.590000E-8	1.046539E-2
4.595000E-8	1.059559E-2
4.600000E-8	1.073606E-2
4.605000E-8	1.090395E-2
4.610000E-8	1.109410E-2
4.615000E-8	1.129796E-2
4.620000E-8	1.149668E-2
4.625000E-8	1.172452E-2
4.630000E-8	1.201747E-2
4.635000E-8	1.236009E-2
4.640000E-8	1.275753E-2
4.645000E-8	1.322864E-2
4.650000E-8	1.377683E-2
4.655000E-8	1.433017E-2
4.660000E-8	1.490406E-2
4.665000E-8	1.551564E-2
4.670000E-8	1.612722E-2
4.675000E-8	1.665486E-2
4.680000E-8	1.704373E-2
4.685000E-8	1.729727E-2
4.690000E-8	1.742918E-2
4.695000E-8	1.740177E-2
4.700000E-8	1.718249E-2
4.705000E-8	1.683473E-2
4.710000E-8	1.640645E-2
4.715000E-8	1.588053E-2
4.720000E-8	1.526895E-2
4.725000E-8	1.457514E-2
4.730000E-8	1.379567E-2
4.735000E-8	1.289115E-2
4.740000E-8	1.189412E-2
4.745000E-8	1.091080E-2
4.750000E-8	9.992571E-3
4.755000E-8	9.153147E-3
4.760000E-8	8.430214E-3
4.765000E-8	7.871740E-3
4.770000E-8	7.486291E-3
4.775000E-8	7.313267E-3
4.780000E-8	7.404061E-3
4.785000E-8	7.750110E-3
4.790000E-8	8.262330E-3
4.795000E-8	8.882475E-3
4.800000E-8	9.649949E-3
4.805000E-8	1.055447E-2
4.810000E-8	1.151210E-2
4.815000E-8	1.252969E-2
4.820000E-8	1.358668E-2
4.825000E-8	1.459741E-2
4.830000E-8	1.550536E-2
4.835000E-8	1.627626E-2
4.840000E-8	1.685700E-2
4.845000E-8	1.721333E-2
4.850000E-8	1.737779E-2
4.855000E-8	1.739149E-2
4.860000E-8	1.726644E-2
4.865000E-8	1.698720E-2
4.870000E-8	1.657948E-2
4.875000E-8	1.608439E-2
4.880000E-8	1.548823E-2
4.885000E-8	1.476358E-2
4.890000E-8	1.399782E-2
4.895000E-8	1.328688E-2
4.900000E-8	1.262391E-2
4.905000E-8	1.193181E-2
4.910000E-8	1.122087E-2
4.915000E-8	1.058531E-2
4.920000E-8	1.006966E-2
4.925000E-8	9.679072E-3
4.930000E-8	9.399835E-3
4.935000E-8	9.249081E-3
4.940000E-8	9.214819E-3
4.945000E-8	9.274778E-3
4.950000E-8	9.415253E-3
4.955000E-8	9.708194E-3
4.960000E-8	1.016559E-2
4.965000E-8	1.070694E-2
4.970000E-8	1.132537E-2
4.975000E-8	1.205173E-2
4.980000E-8	1.282605E-2
4.985000E-8	1.356269E-2
4.990000E-8	1.426678E-2
4.995000E-8	1.486637E-2
5.000000E-8	1.524668E-2
5.005000E-8	1.546253E-2
5.010000E-8	1.558074E-2
5.015000E-8	1.557560E-2
5.020000E-8	1.546082E-2
5.025000E-8	1.532034E-2
5.030000E-8	1.517473E-2
5.035000E-8	1.499143E-2
5.040000E-8	1.479270E-2
5.045000E-8	1.462311E-2
5.050000E-8	1.448263E-2
5.055000E-8	1.439355E-2
5.060000E-8	1.435244E-2
5.065000E-8	1.432674E-2
5.070000E-8	1.432674E-2
5.075000E-8	1.428905E-2
5.080000E-8	1.412973E-2
5.085000E-8	1.382480E-2
5.090000E-8	1.341536E-2
5.095000E-8	1.288430E-2
5.100000E-8	1.222475E-2
5.105000E-8	1.157206E-2
5.110000E-8	1.099303E-2
5.115000E-8	1.050650E-2
5.120000E-8	1.009193E-2
5.125000E-8	9.728752E-3
5.130000E-8	9.447802E-3
5.135000E-8	9.298761E-3
5.140000E-8	9.283343E-3
5.145000E-8	9.367286E-3
5.150000E-8	9.579711E-3
5.155000E-8	9.884645E-3
5.160000E-8	1.019129E-2
5.165000E-8	1.051507E-2
5.170000E-8	1.093135E-2
5.175000E-8	1.142473E-2
5.180000E-8	1.195237E-2
5.185000E-8	1.257251E-2
5.190000E-8	1.328003E-2
5.195000E-8	1.399611E-2
5.200000E-8	1.473789E-2
5.205000E-8	1.556532E-2
5.210000E-8	1.638932E-2
5.215000E-8	1.709341E-2
5.220000E-8	1.762619E-2
5.225000E-8	1.797738E-2
5.230000E-8	1.807845E-2
5.235000E-8	1.789686E-2
5.240000E-8	1.743261E-2
5.245000E-8	1.669254E-2
5.250000E-8	1.570579E-2
5.255000E-8	1.451861E-2
5.260000E-8	1.324405E-2
5.265000E-8	1.199348E-2
5.270000E-8	1.083199E-2
5.275000E-8	9.826399E-3
5.280000E-8	9.050360E-3
5.285000E-8	8.503878E-3
5.290000E-8	8.195518E-3
5.295000E-8	8.150977E-3
5.300000E-8	8.370256E-3
5.305000E-8	8.716304E-3
5.310000E-8	9.142868E-3
5.315000E-8	9.680785E-3
5.320000E-8	1.031806E-2
5.325000E-8	1.097932E-2
5.330000E-8	1.165943E-2
5.335000E-8	1.237722E-2
5.340000E-8	1.309501E-2
5.345000E-8	1.380081E-2
5.350000E-8	1.447921E-2
5.355000E-8	1.511306E-2
5.360000E-8	1.570579E-2
5.365000E-8	1.630195E-2
5.370000E-8	1.682103E-2
5.375000E-8	1.718592E-2
5.380000E-8	1.742576E-2
5.385000E-8	1.754739E-2
5.390000E-8	1.746344E-2
5.395000E-8	1.714480E-2
5.400000E-8	1.666171E-2
5.405000E-8	1.605013E-2
5.410000E-8	1.531349E-2
5.415000E-8	1.449634E-2
5.420000E-8	1.364663E-2
5.425000E-8	1.280892E-2
5.430000E-8	1.204830E-2
5.435000E-8	1.135107E-2
5.440000E-8	1.067610E-2
5.445000E-8	1.013990E-2
5.450000E-8	9.817833E-3
5.455000E-8	9.622539E-3
5.460000E-8	9.468359E-3
5.465000E-8	9.440949E-3
5.470000E-8	9.552301E-3
5.475000E-8	9.696203E-3
5.480000E-8	9.836678E-3
5.485000E-8	9.963448E-3
5.490000E-8	1.005253E-2
5.495000E-8	1.015189E-2
5.500000E-8	1.029579E-2
5.505000E-8	1.043455E-2
5.510000E-8	1.057674E-2
5.515000E-8	1.080801E-2
5.520000E-8	1.110952E-2
5.525000E-8	1.141274E-2
5.530000E-8	1.173480E-2
5.535000E-8	1.209113E-2
5.540000E-8	1.248172E-2
5.545000E-8	1.289801E-2
5.550000E-8	1.331943E-2
5.555000E-8	1.370831E-2
5.560000E-8	1.408690E-2
5.565000E-8	1.447064E-2
5.570000E-8	1.483211E-2
5.575000E-8	1.510963E-2
5.580000E-8	1.529122E-2
5.585000E-8	1.537345E-2
5.590000E-8	1.534947E-2
5.595000E-8	1.521756E-2
5.600000E-8	1.497429E-2
5.605000E-8	1.465908E-2
5.610000E-8	1.430961E-2
5.615000E-8	1.387962E-2
5.620000E-8	1.334513E-2
5.625000E-8	1.277124E-2
5.630000E-8	1.219049E-2
5.635000E-8	1.155150E-2
5.640000E-8	1.085940E-2
5.645000E-8	1.019814E-2
5.650000E-8	9.581424E-3
5.655000E-8	9.007532E-3
5.660000E-8	8.476468E-3
5.665000E-8	8.025920E-3
5.670000E-8	7.712421E-3
5.675000E-8	7.589077E-3
5.680000E-8	7.633618E-3
5.685000E-8	7.842618E-3
5.690000E-8	8.222928E-3
5.695000E-8	8.755705E-3
5.700000E-8	9.411826E-3
5.705000E-8	1.016046E-2
5.710000E-8	1.098275E-2
5.715000E-8	1.184102E-2
5.720000E-8	1.272498E-2
5.725000E-8	1.360209E-2
5.730000E-8	1.441239E-2
5.735000E-8	1.514047E-2
5.740000E-8	1.577946E-2
5.745000E-8	1.627968E-2
5.750000E-8	1.658462E-2
5.755000E-8	1.667199E-2
5.760000E-8	1.655378E-2
5.765000E-8	1.625741E-2
5.770000E-8	1.578288E-2
5.775000E-8	1.514732E-2
5.780000E-8	1.436785E-2
5.785000E-8	1.342564E-2
5.790000E-8	1.236523E-2
5.795000E-8	1.131167E-2
5.800000E-8	1.034890E-2
5.805000E-8	9.511187E-3
5.810000E-8	8.789967E-3
5.815000E-8	8.219502E-3
5.820000E-8	7.820347E-3
5.825000E-8	7.611348E-3
5.830000E-8	7.589077E-3
5.835000E-8	7.703856E-3
5.840000E-8	7.916281E-3
5.845000E-8	8.236633E-3
5.850000E-8	8.659771E-3
5.855000E-8	9.142868E-3
5.860000E-8	9.687637E-3
5.865000E-8	1.033177E-2
5.870000E-8	1.103585E-2
5.875000E-8	1.176221E-2
5.880000E-8	1.247829E-2
5.885000E-8	1.313955E-2
5.890000E-8	1.374771E-2
5.895000E-8	1.431475E-2
5.900000E-8	1.477215E-2
5.905000E-8	1.502397E-2
5.910000E-8	1.510963E-2
5.915000E-8	1.511306E-2
5.920000E-8	1.500170E-2
5.925000E-8	1.473789E-2
5.930000E-8	1.437985E-2
5.935000E-8	1.398412E-2
5.940000E-8	1.356783E-2
5.945000E-8	1.314983E-2
5.950000E-8	1.274211E-2
5.955000E-8	1.233953E-2
5.960000E-8	1.195922E-2
5.965000E-8	1.161317E-2
5.970000E-8	1.128939E-2
5.975000E-8	1.097932E-2
5.980000E-8	1.073092E-2
5.985000E-8	1.059901E-2
5.990000E-8	1.056304E-2
5.995000E-8	1.058017E-2
6.000000E-8	1.066068E-2
6.005000E-8	1.080116E-2
6.010000E-8	1.095705E-2
6.015000E-8	1.108382E-2
6.020000E-8	1.115749E-2
6.025000E-8	1.116434E-2
6.030000E-8	1.113008E-2
6.035000E-8	1.109067E-2
6.040000E-8	1.100502E-2
6.045000E-8	1.085255E-2
6.050000E-8	1.070694E-2
6.055000E-8	1.060929E-2
6.060000E-8	1.057331E-2
6.065000E-8	1.069323E-2
6.070000E-8	1.103414E-2
6.075000E-8	1.151895E-2
6.080000E-8	1.208942E-2
6.085000E-8	1.276438E-2
6.090000E-8	1.349931E-2
6.095000E-8	1.420511E-2
6.100000E-8	1.484924E-2
6.105000E-8	1.539915E-2
6.110000E-8	1.581372E-2
6.115000E-8	1.607240E-2
6.120000E-8	1.611351E-2
6.125000E-8	1.592507E-2
6.130000E-8	1.555847E-2
6.135000E-8	1.508907E-2
6.140000E-8	1.453403E-2
6.145000E-8	1.392758E-2
6.150000E-8	1.324919E-2
6.155000E-8	1.249029E-2
6.160000E-8	1.177421E-2
6.165000E-8	1.118147E-2
6.170000E-8	1.064355E-2
6.175000E-8	1.009707E-2
6.180000E-8	9.617400E-3
6.185000E-8	9.255933E-3
6.190000E-8	8.956139E-3
6.195000E-8	8.712878E-3
6.200000E-8	8.591247E-3
6.205000E-8	8.562124E-3
6.210000E-8	8.608378E-3
6.215000E-8	8.755705E-3
6.220000E-8	9.028090E-3
6.225000E-8	9.434097E-3
6.230000E-8	9.975440E-3
6.235000E-8	1.060244E-2
6.240000E-8	1.123971E-2
6.245000E-8	1.191639E-2
6.250000E-8	1.261877E-2
6.255000E-8	1.328859E-2
6.260000E-8	1.393101E-2
6.265000E-8	1.459741E-2
6.270000E-8	1.518329E-2
6.275000E-8	1.560643E-2
6.280000E-8	1.592850E-2
6.285000E-8	1.614092E-2
6.290000E-8	1.608096E-2
6.295000E-8	1.576918E-2
6.300000E-8	1.536146E-2
6.305000E-8	1.483382E-2
6.310000E-8	1.409718E-2
6.315000E-8	1.326632E-2
6.320000E-8	1.243204E-2
6.325000E-8	1.157206E-2
6.330000E-8	1.074120E-2
6.335000E-8	1.002512E-2
6.340000E-8	9.377564E-3
6.345000E-8	8.786541E-3
6.350000E-8	8.351411E-3
6.355000E-8	8.070461E-3
6.360000E-8	7.900863E-3
6.365000E-8	7.923134E-3
6.370000E-8	8.111576E-3
6.375000E-8	8.354838E-3
6.380000E-8	8.671763E-3
6.385000E-8	9.113745E-3
6.390000E-8	9.572859E-3
6.395000E-8	9.973726E-3
6.400000E-8	1.043455E-2
6.405000E-8	1.096219E-2
6.410000E-8	1.147441E-2
6.415000E-8	1.192153E-2
6.420000E-8	1.229328E-2
6.425000E-8	1.253654E-2
6.430000E-8	1.267359E-2
6.435000E-8	1.275410E-2
6.440000E-8	1.276267E-2
6.445000E-8	1.269586E-2
6.450000E-8	1.259478E-2
6.455000E-8	1.246801E-2
6.460000E-8	1.231726E-2
6.465000E-8	1.218193E-2
6.470000E-8	1.208085E-2
6.475000E-8	1.199348E-2
6.480000E-8	1.191639E-2
6.485000E-8	1.185986E-2
6.490000E-8	1.178620E-2
6.495000E-8	1.168855E-2
6.500000E-8	1.161489E-2
6.505000E-8	1.151724E-2
6.510000E-8	1.135107E-2
6.515000E-8	1.119003E-2
6.520000E-8	1.108211E-2
6.525000E-8	1.098104E-2
6.530000E-8	1.082343E-2
6.535000E-8	1.060244E-2
6.540000E-8	1.030093E-2
6.545000E-8	9.977153E-3
6.550000E-8	9.675645E-3
6.555000E-8	9.411826E-3
6.560000E-8	9.132589E-3
6.565000E-8	8.858492E-3
6.570000E-8	8.647779E-3
6.575000E-8	8.531288E-3
6.580000E-8	8.512444E-3
6.585000E-8	8.610091E-3
6.590000E-8	8.858492E-3
6.595000E-8	9.267925E-3
6.600000E-8	9.816120E-3
6.605000E-8	1.046025E-2
6.610000E-8	1.117633E-2
6.615000E-8	1.192667E-2
6.620000E-8	1.265817E-2
6.625000E-8	1.330230E-2
6.630000E-8	1.388990E-2
6.635000E-8	1.442439E-2
6.640000E-8	1.481840E-2
6.645000E-8	1.502569E-2
6.650000E-8	1.508736E-2
6.655000E-8	1.499828E-2
6.660000E-8	1.471048E-2
6.665000E-8	1.423252E-2
6.670000E-8	1.360381E-2
6.675000E-8	1.285518E-2
6.680000E-8	1.204488E-2
6.685000E-8	1.125685E-2
6.690000E-8	1.050479E-2
6.695000E-8	9.737317E-3
6.700000E-8	8.985262E-3
6.705000E-8	8.296592E-3
6.710000E-8	7.690151E-3
6.715000E-8	7.162513E-3
6.720000E-8	6.787342E-3
6.725000E-8	6.590334E-3
6.730000E-8	6.525236E-3
6.735000E-8	6.576629E-3
6.740000E-8	6.795907E-3
6.745000E-8	7.213906E-3
6.750000E-8	7.787798E-3
6.755000E-8	8.452485E-3
6.760000E-8	9.214819E-3
6.765000E-8	1.008850E-2
6.770000E-8	1.100844E-2
6.775000E-8	1.190098E-2
6.780000E-8	1.275582E-2
6.785000E-8	1.352672E-2
6.790000E-8	1.412631E-2
6.795000E-8	1.451347E-2
6.800000E-8	1.468821E-2
6.805000E-8	1.463853E-2
6.810000E-8	1.437128E-2
6.815000E-8	1.396870E-2
6.820000E-8	1.351986E-2
6.825000E-8	1.303848E-2
6.830000E-8	1.255196E-2
6.835000E-8	1.211854E-2
6.840000E-8	1.171596E-2
6.845000E-8	1.130139E-2
6.850000E-8	1.090052E-2
6.855000E-8	1.057845E-2
6.860000E-8	1.028551E-2
6.865000E-8	1.001998E-2
6.870000E-8	9.802415E-3
6.875000E-8	9.655088E-3
6.880000E-8	9.516326E-3
6.885000E-8	9.363859E-3
6.890000E-8	9.219958E-3
6.895000E-8	9.110319E-3
6.900000E-8	9.045221E-3
6.905000E-8	9.041795E-3
6.910000E-8	9.139442E-3
6.915000E-8	9.317605E-3
6.920000E-8	9.524892E-3
6.925000E-8	9.733891E-3
6.930000E-8	9.987431E-3
6.935000E-8	1.027866E-2
6.940000E-8	1.055104E-2
6.945000E-8	1.078574E-2
6.950000E-8	1.102044E-2
6.955000E-8	1.126712E-2
6.960000E-8	1.147098E-2
6.965000E-8	1.160975E-2
6.970000E-8	1.172281E-2
6.975000E-8	1.184616E-2
6.980000E-8	1.195922E-2
6.985000E-8	1.209284E-2
6.990000E-8	1.226073E-2
6.995000E-8	1.240120E-2
7.000000E-8	1.247829E-2
7.005000E-8	1.256395E-2
7.010000E-8	1.263076E-2
7.015000E-8	1.262562E-2
7.020000E-8	1.256738E-2
7.025000E-8	1.247315E-2
7.030000E-8	1.230013E-2
7.035000E-8	1.204659E-2
7.040000E-8	1.174851E-2
7.045000E-8	1.138876E-2
7.050000E-8	1.096048E-2
7.055000E-8	1.053734E-2
7.060000E-8	1.014161E-2
7.065000E-8	9.742457E-3
7.070000E-8	9.321032E-3
7.075000E-8	8.906459E-3
7.080000E-8	8.497026E-3
7.085000E-8	8.113289E-3
7.090000E-8	7.849470E-3
7.095000E-8	7.710708E-3
7.100000E-8	7.619913E-3
7.105000E-8	7.587364E-3
7.110000E-8	7.738118E-3
7.115000E-8	8.096158E-3
7.120000E-8	8.538140E-3
7.125000E-8	9.019524E-3
7.130000E-8	9.603695E-3
7.135000E-8	1.024782E-2
7.140000E-8	1.087311E-2
7.145000E-8	1.149326E-2
7.150000E-8	1.212882E-2
7.155000E-8	1.268729E-2
7.160000E-8	1.314812E-2
7.165000E-8	1.354727E-2
7.170000E-8	1.385049E-2
7.175000E-8	1.401495E-2
7.180000E-8	1.406292E-2
7.185000E-8	1.395842E-2
7.190000E-8	1.363978E-2
7.195000E-8	1.314469E-2
7.200000E-8	1.253997E-2
7.205000E-8	1.185815E-2
7.210000E-8	1.110095E-2
7.215000E-8	1.031121E-2
7.220000E-8	9.511187E-3
7.225000E-8	8.733435E-3
7.230000E-8	8.037912E-3
7.235000E-8	7.452029E-3
7.240000E-8	6.979210E-3
7.245000E-8	6.665711E-3
7.250000E-8	6.535515E-3
7.255000E-8	6.557785E-3
7.260000E-8	6.657145E-3
7.265000E-8	6.837022E-3
7.270000E-8	7.105980E-3
7.275000E-8	7.436611E-3
7.280000E-8	7.792937E-3
7.285000E-8	8.157830E-3
7.290000E-8	8.515870E-3
7.295000E-8	8.865344E-3
7.300000E-8	9.211393E-3
7.305000E-8	9.564293E-3
7.310000E-8	9.910341E-3
7.315000E-8	1.026667E-2
7.320000E-8	1.061100E-2
7.325000E-8	1.090395E-2
7.330000E-8	1.114892E-2
7.335000E-8	1.134593E-2
7.340000E-8	1.147612E-2
7.345000E-8	1.151724E-2
7.350000E-8	1.151039E-2
7.355000E-8	1.145899E-2
7.360000E-8	1.134593E-2
7.365000E-8	1.116776E-2
7.370000E-8	1.095363E-2
7.375000E-8	1.072921E-2
7.380000E-8	1.051507E-2
7.385000E-8	1.032320E-2
7.390000E-8	1.014161E-2
7.395000E-8	9.999423E-3
7.400000E-8	9.889784E-3
7.405000E-8	9.773293E-3
7.410000E-8	9.617400E-3
7.415000E-8	9.440949E-3
7.420000E-8	9.250794E-3
7.425000E-8	9.024664E-3
7.430000E-8	8.771123E-3
7.435000E-8	8.524435E-3
7.440000E-8	8.293166E-3
7.445000E-8	8.118428E-3
7.450000E-8	8.007076E-3
7.455000E-8	7.933412E-3
7.460000E-8	7.924847E-3
7.465000E-8	8.027634E-3
7.470000E-8	8.195518E-3
7.475000E-8	8.375395E-3
7.480000E-8	8.606665E-3
7.485000E-8	8.923590E-3
7.490000E-8	9.293622E-3
7.495000E-8	9.680785E-3
7.500000E-8	1.010392E-2
7.505000E-8	1.057845E-2
7.510000E-8	1.107697E-2
7.515000E-8	1.155835E-2
7.520000E-8	1.202089E-2
7.525000E-8	1.243718E-2
7.530000E-8	1.274725E-2
7.535000E-8	1.293227E-2
7.540000E-8	1.300936E-2
7.545000E-8	1.299908E-2
7.550000E-8	1.288944E-2
7.555000E-8	1.269757E-2
7.560000E-8	1.242861E-2
7.565000E-8	1.206372E-2
7.570000E-8	1.158748E-2
7.575000E-8	1.103072E-2
7.580000E-8	1.045682E-2
7.585000E-8	9.894923E-3
7.590000E-8	9.331310E-3
7.595000E-8	8.760845E-3
7.600000E-8	8.197231E-3
7.605000E-8	7.652462E-3
7.610000E-8	7.191636E-3
7.615000E-8	6.883276E-3
7.620000E-8	6.701686E-3
7.625000E-8	6.602326E-3
7.630000E-8	6.605752E-3
7.635000E-8	6.775350E-3
7.640000E-8	7.090562E-3
7.645000E-8	7.518840E-3
7.650000E-8	8.079027E-3
7.655000E-8	8.723156E-3
7.660000E-8	9.382704E-3
7.665000E-8	1.003882E-2
7.670000E-8	1.069323E-2
7.675000E-8	1.128597E-2
7.680000E-8	1.180847E-2
7.685000E-8	1.225216E-2
7.690000E-8	1.254853E-2
7.695000E-8	1.267701E-2
7.700000E-8	1.269072E-2
7.705000E-8	1.260506E-2
7.710000E-8	1.238579E-2
7.715000E-8	1.207229E-2
7.720000E-8	1.170568E-2
7.725000E-8	1.129111E-2
7.730000E-8	1.084741E-2
7.735000E-8	1.038145E-2
7.740000E-8	9.908628E-3
7.745000E-8	9.497482E-3
7.750000E-8	9.182270E-3
7.755000E-8	8.889328E-3
7.760000E-8	8.574116E-3
7.765000E-8	8.260616E-3
7.770000E-8	7.962535E-3
7.775000E-8	7.674733E-3
7.780000E-8	7.434897E-3
7.785000E-8	7.272152E-3
7.790000E-8	7.159087E-3
7.795000E-8	7.104267E-3
7.800000E-8	7.135103E-3
7.805000E-8	7.225898E-3
7.810000E-8	7.410914E-3
7.815000E-8	7.736405E-3
7.820000E-8	8.144125E-3
7.825000E-8	8.562124E-3
7.830000E-8	9.017811E-3
7.835000E-8	9.500908E-3
7.840000E-8	9.901776E-3
7.845000E-8	1.021870E-2
7.850000E-8	1.051164E-2
7.855000E-8	1.076690E-2
7.860000E-8	1.092622E-2
7.865000E-8	1.100844E-2
7.870000E-8	1.103928E-2
7.875000E-8	1.104442E-2
7.880000E-8	1.104271E-2
7.885000E-8	1.099817E-2
7.890000E-8	1.089709E-2
7.895000E-8	1.083199E-2
7.900000E-8	1.084399E-2
7.905000E-8	1.086797E-2
7.910000E-8	1.089367E-2
7.915000E-8	1.093307E-2
7.920000E-8	1.090908E-2
7.925000E-8	1.078574E-2
7.930000E-8	1.061443E-2
7.935000E-8	1.039173E-2
7.940000E-8	1.005938E-2
7.945000E-8	9.656801E-3
7.950000E-8	9.226811E-3
7.955000E-8	8.753992E-3
7.960000E-8	8.279461E-3
7.965000E-8	7.892298E-3
7.970000E-8	7.573659E-3
7.975000E-8	7.280718E-3
7.980000E-8	7.049448E-3
7.985000E-8	6.929530E-3
7.990000E-8	6.929530E-3
7.995000E-8	7.052874E-3
8.000000E-8	7.261873E-3
8.005000E-8	7.503422E-3
8.010000E-8	7.818634E-3
8.015000E-8	8.229780E-3
8.020000E-8	8.656345E-3
8.025000E-8	9.019524E-3
8.030000E-8	9.372425E-3
8.035000E-8	9.740744E-3
8.040000E-8	1.006623E-2
8.045000E-8	1.034718E-2
8.050000E-8	1.063499E-2
8.055000E-8	1.091765E-2
8.060000E-8	1.116091E-2
8.065000E-8	1.135278E-2
8.070000E-8	1.147270E-2
8.075000E-8	1.148812E-2
8.080000E-8	1.137676E-2
8.085000E-8	1.113179E-2
8.090000E-8	1.080287E-2
8.095000E-8	1.044483E-2
8.100000E-8	1.005424E-2
8.105000E-8	9.595129E-3
8.110000E-8	9.101753E-3
8.115000E-8	8.616943E-3
8.120000E-8	8.116715E-3
8.125000E-8	7.613061E-3
8.130000E-8	7.181357E-3
8.135000E-8	6.840448E-3
8.140000E-8	6.610892E-3
8.145000E-8	6.526949E-3
8.150000E-8	6.580056E-3
8.155000E-8	6.679416E-3
8.160000E-8	6.780489E-3
8.165000E-8	6.943235E-3
8.170000E-8	7.225898E-3
8.175000E-8	7.638758E-3
8.180000E-8	8.128707E-3
8.185000E-8	8.683755E-3
8.190000E-8	9.273064E-3
8.195000E-8	9.843530E-3
8.200000E-8	1.039001E-2
8.205000E-8	1.091594E-2
8.210000E-8	1.139903E-2
8.215000E-8	1.182731E-2
8.220000E-8	1.219734E-2
8.225000E-8	1.245431E-2
8.230000E-8	1.251769E-2
8.235000E-8	1.243204E-2
8.240000E-8	1.220934E-2
8.245000E-8	1.181018E-2
8.250000E-8	1.127912E-2
8.255000E-8	1.067781E-2
8.260000E-8	1.001655E-2
8.265000E-8	9.334736E-3
8.270000E-8	8.699173E-3
8.275000E-8	8.126994E-3
8.280000E-8	7.633618E-3
8.285000E-8	7.294422E-3
8.290000E-8	7.111120E-3
8.295000E-8	7.030603E-3
8.300000E-8	7.056300E-3
8.305000E-8	7.143669E-3
8.310000E-8	7.217332E-3
8.315000E-8	7.316693E-3
8.320000E-8	7.470873E-3
8.325000E-8	7.611348E-3
8.330000E-8	7.698716E-3
8.335000E-8	7.758675E-3
8.340000E-8	7.794651E-3
8.345000E-8	7.813495E-3
8.350000E-8	7.858036E-3
8.355000E-8	7.947117E-3
8.360000E-8	8.094445E-3
8.365000E-8	8.342846E-3
8.370000E-8	8.666624E-3
8.375000E-8	8.988688E-3
8.380000E-8	9.295335E-3
8.385000E-8	9.569433E-3
8.390000E-8	9.809268E-3
8.395000E-8	1.004568E-2
8.400000E-8	1.027695E-2
8.405000E-8	1.042256E-2
8.410000E-8	1.051850E-2
8.415000E-8	1.061786E-2
8.420000E-8	1.064013E-2
8.425000E-8	1.050308E-2
8.430000E-8	1.028037E-2
8.435000E-8	1.006110E-2
8.440000E-8	9.846956E-3
8.445000E-8	9.631104E-3
8.450000E-8	9.422105E-3
8.455000E-8	9.197688E-3
8.460000E-8	8.995541E-3
8.465000E-8	8.868771E-3
8.470000E-8	8.762558E-3
8.475000E-8	8.632361E-3
8.480000E-8	8.493599E-3
8.485000E-8	8.332567E-3
8.490000E-8	8.109863E-3
8.495000E-8	7.900863E-3
8.500000E-8	7.732979E-3
8.505000E-8	7.549676E-3
8.510000E-8	7.385217E-3
8.515000E-8	7.333824E-3
8.520000E-8	7.337250E-3
8.525000E-8	7.335537E-3
8.530000E-8	7.429758E-3
8.535000E-8	7.707282E-3
8.540000E-8	8.068748E-3
8.545000E-8	8.455911E-3
8.550000E-8	8.896180E-3
8.555000E-8	9.368999E-3
8.560000E-8	9.824686E-3
8.565000E-8	1.023241E-2
8.570000E-8	1.060415E-2
8.575000E-8	1.092964E-2
8.580000E-8	1.116948E-2
8.585000E-8	1.132194E-2
8.590000E-8	1.140589E-2
8.595000E-8	1.143844E-2
8.600000E-8	1.135621E-2
8.605000E-8	1.115749E-2
8.610000E-8	1.093307E-2
8.615000E-8	1.069495E-2
8.620000E-8	1.036945E-2
8.625000E-8	9.990858E-3
8.630000E-8	9.658514E-3
8.635000E-8	9.360433E-3
8.640000E-8	9.017811E-3
8.645000E-8	8.649492E-3
8.650000E-8	8.270895E-3
8.655000E-8	7.880306E-3
8.660000E-8	7.446889E-3
8.665000E-8	6.984350E-3
8.670000E-8	6.552646E-3
8.675000E-8	6.275122E-3
8.680000E-8	6.143212E-3
8.685000E-8	6.074688E-3
8.690000E-8	6.091819E-3
8.695000E-8	6.268270E-3
8.700000E-8	6.561211E-3
8.705000E-8	6.931243E-3
8.710000E-8	7.398922E-3
8.715000E-8	7.953970E-3
8.720000E-8	8.527862E-3
8.725000E-8	9.094901E-3
8.730000E-8	9.600268E-3
8.735000E-8	9.978866E-3
8.740000E-8	1.025810E-2
8.745000E-8	1.047395E-2
8.750000E-8	1.058017E-2
8.755000E-8	1.056475E-2
8.760000E-8	1.048937E-2
8.765000E-8	1.039344E-2
8.770000E-8	1.022555E-2
8.775000E-8	9.963448E-3
8.780000E-8	9.620826E-3
8.785000E-8	9.264499E-3
8.790000E-8	8.969844E-3
8.795000E-8	8.707738E-3
8.800000E-8	8.450772E-3
8.805000E-8	8.205797E-3
8.810000E-8	8.005363E-3
8.815000E-8	7.842618E-3
8.820000E-8	7.710708E-3
8.825000E-8	7.582225E-3
8.830000E-8	7.443463E-3
8.835000E-8	7.268726E-3
8.840000E-8	7.070005E-3
8.845000E-8	6.903833E-3
8.850000E-8	6.802760E-3
8.855000E-8	6.754793E-3
8.860000E-8	6.711965E-3
8.865000E-8	6.665711E-3
8.870000E-8	6.662285E-3
8.875000E-8	6.710252E-3
8.880000E-8	6.782203E-3
8.885000E-8	6.915825E-3
8.890000E-8	7.135103E-3
8.895000E-8	7.410914E-3
8.900000E-8	7.724413E-3
8.905000E-8	8.091019E-3
8.910000E-8	8.543280E-3
8.915000E-8	9.010959E-3
8.920000E-8	9.423818E-3
8.925000E-8	9.766440E-3
8.930000E-8	1.005253E-2
8.935000E-8	1.025296E-2
8.940000E-8	1.034718E-2
8.945000E-8	1.038487E-2
8.950000E-8	1.039001E-2
8.955000E-8	1.034376E-2
8.960000E-8	1.023755E-2
8.965000E-8	1.007823E-2
8.970000E-8	9.850383E-3
8.975000E-8	9.572859E-3
8.980000E-8	9.303900E-3
8.985000E-8	9.036655E-3
8.990000E-8	8.817377E-3
8.995000E-8	8.676902E-3
9.000000E-8	8.553558E-3
9.005000E-8	8.378821E-3
9.010000E-8	8.154404E-3
9.015000E-8	7.895724E-3
9.020000E-8	7.602782E-3
9.025000E-8	7.294422E-3
9.030000E-8	7.025464E-3
9.035000E-8	6.795907E-3
9.040000E-8	6.624596E-3
9.045000E-8	6.554359E-3
9.050000E-8	6.605752E-3
9.055000E-8	6.718817E-3
9.060000E-8	6.871284E-3
9.065000E-8	7.085423E-3
9.070000E-8	7.337250E-3
9.075000E-8	7.602782E-3
9.080000E-8	7.912855E-3
9.085000E-8	8.252051E-3
9.090000E-8	8.582681E-3
9.095000E-8	8.906459E-3
9.100000E-8	9.202827E-3
9.105000E-8	9.428957E-3
9.110000E-8	9.567719E-3
9.115000E-8	9.641383E-3
9.120000E-8	9.653375E-3
9.125000E-8	9.596842E-3
9.130000E-8	9.471785E-3
9.135000E-8	9.283343E-3
9.140000E-8	9.031516E-3
9.145000E-8	8.745427E-3
9.150000E-8	8.474755E-3
9.155000E-8	8.265756E-3
9.160000E-8	8.120141E-3
9.165000E-8	7.979666E-3
9.170000E-8	7.866601E-3
9.175000E-8	7.830626E-3
9.180000E-8	7.830626E-3
9.185000E-8	7.756962E-3
9.190000E-8	7.661028E-3
9.195000E-8	7.607922E-3
9.200000E-8	7.518840E-3
9.205000E-8	7.325258E-3
9.210000E-8	7.076857E-3
9.215000E-8	6.876424E-3
9.220000E-8	6.732522E-3
9.225000E-8	6.669137E-3
9.230000E-8	6.701686E-3
9.235000E-8	6.855866E-3
9.240000E-8	7.114546E-3
9.245000E-8	7.446889E-3
9.250000E-8	7.818634E-3
9.255000E-8	8.233207E-3
9.260000E-8	8.687181E-3
9.265000E-8	9.096614E-3
9.270000E-8	9.422105E-3
9.275000E-8	9.667080E-3
9.280000E-8	9.872653E-3
9.285000E-8	1.004910E-2
9.290000E-8	1.022041E-2
9.295000E-8	1.038830E-2
9.300000E-8	1.052192E-2
9.305000E-8	1.059901E-2
9.310000E-8	1.065726E-2
9.315000E-8	1.070694E-2
9.320000E-8	1.070522E-2
9.325000E-8	1.064869E-2
9.330000E-8	1.058873E-2
9.335000E-8	1.048252E-2
9.340000E-8	1.023583E-2
9.345000E-8	9.872653E-3
9.350000E-8	9.483777E-3
9.355000E-8	9.070917E-3
9.360000E-8	8.604952E-3
9.365000E-8	8.149264E-3
9.370000E-8	7.755249E-3
9.375000E-8	7.390357E-3
9.380000E-8	7.058013E-3
9.385000E-8	6.783916E-3
9.390000E-8	6.585195E-3
9.395000E-8	6.441294E-3
9.400000E-8	6.353925E-3
9.405000E-8	6.293966E-3
9.410000E-8	6.239147E-3
9.415000E-8	6.203171E-3
9.420000E-8	6.204884E-3
9.425000E-8	6.252852E-3
9.430000E-8	6.381335E-3
9.435000E-8	6.598900E-3
9.440000E-8	6.898694E-3
9.445000E-8	7.261873E-3
9.450000E-8	7.703856E-3
9.455000E-8	8.224641E-3
9.460000E-8	8.803672E-3
9.465000E-8	9.353581E-3
9.470000E-8	9.834965E-3
9.475000E-8	1.022041E-2
9.480000E-8	1.049794E-2
9.485000E-8	1.064013E-2
9.490000E-8	1.066754E-2
9.495000E-8	1.060586E-2
9.500000E-8	1.044483E-2
9.505000E-8	1.017245E-2
9.510000E-8	9.816120E-3
9.515000E-8	9.444375E-3
9.520000E-8	9.022950E-3
9.525000E-8	8.517583E-3
9.530000E-8	7.989945E-3
9.535000E-8	7.520553E-3
9.540000E-8	7.061439E-3
9.545000E-8	6.590334E-3
9.550000E-8	6.172335E-3
9.555000E-8	5.845131E-3
9.560000E-8	5.579599E-3
9.565000E-8	5.386018E-3
9.570000E-8	5.293510E-3
9.575000E-8	5.300362E-3
9.580000E-8	5.423706E-3
9.585000E-8	5.646411E-3
9.590000E-8	5.913656E-3
9.595000E-8	6.220302E-3
9.600000E-8	6.586908E-3
9.605000E-8	6.996341E-3
9.610000E-8	7.374939E-3
9.615000E-8	7.736405E-3
9.620000E-8	8.096158E-3
9.625000E-8	8.416509E-3
9.630000E-8	8.630648E-3
9.635000E-8	8.706025E-3
9.640000E-8	8.702599E-3
9.645000E-8	8.704312E-3
9.650000E-8	8.702599E-3
9.655000E-8	8.615230E-3
9.660000E-8	8.457624E-3
9.665000E-8	8.301731E-3
9.670000E-8	8.137273E-3
9.675000E-8	7.919708E-3
9.680000E-8	7.681585E-3
9.685000E-8	7.476012E-3
9.690000E-8	7.297849E-3
9.695000E-8	7.138529E-3
9.700000E-8	7.004907E-3
9.705000E-8	6.919251E-3
9.710000E-8	6.881563E-3
9.715000E-8	6.883276E-3
9.720000E-8	6.898694E-3
9.725000E-8	6.924391E-3
9.730000E-8	6.936382E-3
9.735000E-8	6.862719E-3
9.740000E-8	6.723957E-3
9.745000E-8	6.593760E-3
9.750000E-8	6.504679E-3
9.755000E-8	6.369343E-3
9.760000E-8	6.186040E-3
9.765000E-8	6.060983E-3
9.770000E-8	5.994172E-3
9.775000E-8	5.939352E-3
9.780000E-8	5.949631E-3
9.785000E-8	6.117516E-3
9.790000E-8	6.369343E-3
9.795000E-8	6.628023E-3
9.800000E-8	6.941522E-3
9.805000E-8	7.294422E-3
9.810000E-8	7.601069E-3
9.815000E-8	7.866601E-3
9.820000E-8	8.137273E-3
9.825000E-8	8.341133E-3
9.830000E-8	8.443919E-3
9.835000E-8	8.488460E-3
9.840000E-8	8.483321E-3
9.845000E-8	8.425075E-3
9.850000E-8	8.325715E-3
9.855000E-8	8.152691E-3
9.860000E-8	7.902576E-3
9.865000E-8	7.674733E-3
9.870000E-8	7.510274E-3
9.875000E-8	7.362947E-3
9.880000E-8	7.213906E-3
9.885000E-8	7.093989E-3
9.890000E-8	7.003194E-3
9.895000E-8	6.950087E-3
9.900000E-8	6.950087E-3
9.905000E-8	6.970645E-3
9.910000E-8	6.963792E-3
9.915000E-8	6.907260E-3
9.920000E-8	6.807899E-3
9.925000E-8	6.722244E-3
9.930000E-8	6.634875E-3
9.935000E-8	6.501252E-3
9.940000E-8	6.347073E-3
9.945000E-8	6.239147E-3
9.950000E-8	6.215163E-3
9.955000E-8	6.254565E-3
9.960000E-8	6.357351E-3
9.965000E-8	6.528662E-3
9.970000E-8	6.794194E-3
9.975000E-8	7.148808E-3
9.980000E-8	7.578799E-3
9.985000E-8	8.022494E-3
9.990000E-8	8.404518E-3
9.995000E-8	8.700886E-3
1.000000E-7	8.921877E-3
1.000500E-7	9.052073E-3
1.001000E-7	9.052073E-3
1.001500E-7	8.927016E-3
1.002000E-7	8.712878E-3
1.002500E-7	8.442206E-3
1.003000E-7	8.181813E-3
1.003500E-7	7.959109E-3
1.004000E-7	7.756962E-3
1.004500E-7	7.582225E-3
1.005000E-7	7.428045E-3
1.005500E-7	7.320119E-3
1.006000E-7	7.275578E-3
1.006500E-7	7.251595E-3
1.007000E-7	7.179644E-3
1.007500E-7	7.064866E-3
1.008000E-7	6.991202E-3
1.008500E-7	6.931243E-3
1.009000E-7	6.778776E-3
1.009500E-7	6.598900E-3
1.010000E-7	6.458425E-3
1.010500E-7	6.357351E-3
1.011000E-7	6.300819E-3
1.011500E-7	6.311097E-3
1.012000E-7	6.383048E-3
1.012500E-7	6.514957E-3
1.013000E-7	6.717104E-3
1.013500E-7	6.950087E-3
1.014000E-7	7.150521E-3
1.014500E-7	7.347529E-3
1.015000E-7	7.535971E-3
1.015500E-7	7.626766E-3
1.016000E-7	7.611348E-3
1.016500E-7	7.570233E-3
1.017000E-7	7.544536E-3
1.017500E-7	7.532545E-3
1.018000E-7	7.535971E-3
1.018500E-7	7.558241E-3
1.019000E-7	7.590790E-3
1.019500E-7	7.643897E-3
1.020000E-7	7.717561E-3
1.020500E-7	7.808355E-3
1.021000E-7	7.904290E-3
1.021500E-7	7.959109E-3
1.022000E-7	7.948830E-3
1.022500E-7	7.868314E-3
1.023000E-7	7.756962E-3
1.023500E-7	7.609635E-3
1.024000E-7	7.400635E-3
1.024500E-7	7.179644E-3
1.025000E-7	6.975784E-3
1.025500E-7	6.768498E-3
1.026000E-7	6.580056E-3
1.026500E-7	6.443007E-3
1.027000E-7	6.314523E-3
1.027500E-7	6.160344E-3
1.028000E-7	6.023295E-3
1.028500E-7	5.911943E-3
1.029000E-7	5.781746E-3
1.029500E-7	5.666968E-3
1.030000E-7	5.644697E-3
1.030500E-7	5.658402E-3
1.031000E-7	5.660115E-3
1.031500E-7	5.721787E-3
1.032000E-7	5.863976E-3
1.032500E-7	6.031860E-3
1.033000E-7	6.218589E-3
1.033500E-7	6.425876E-3
1.034000E-7	6.645154E-3
1.034500E-7	6.847301E-3
1.035000E-7	7.037456E-3
1.035500E-7	7.249882E-3
1.036000E-7	7.476012E-3
1.036500E-7	7.688438E-3
1.037000E-7	7.825487E-3
1.037500E-7	7.878593E-3
1.038000E-7	7.907716E-3
1.038500E-7	7.928273E-3
1.039000E-7	7.876880E-3
1.039500E-7	7.798077E-3
1.040000E-7	7.762101E-3
1.040500E-7	7.734692E-3
1.041000E-7	7.654176E-3
1.041500E-7	7.542823E-3
1.042000E-7	7.410914E-3
1.042500E-7	7.215619E-3
1.043000E-7	7.010046E-3
1.043500E-7	6.859292E-3
1.044000E-7	6.708539E-3
1.044500E-7	6.538941E-3
1.045000E-7	6.439581E-3
1.045500E-7	6.432728E-3
1.046000E-7	6.449859E-3
1.046500E-7	6.478982E-3
1.047000E-7	6.564638E-3
1.047500E-7	6.687981E-3
1.048000E-7	6.837022E-3
1.048500E-7	7.037456E-3
1.049000E-7	7.279004E-3
1.049500E-7	7.527405E-3
1.050000E-7	7.756962E-3
1.050500E-7	7.952257E-3
1.051000E-7	8.101297E-3
1.051500E-7	8.253764E-3
1.052000E-7	8.402805E-3
1.052500E-7	8.488460E-3
1.053000E-7	8.509017E-3
1.053500E-7	8.512444E-3
1.054000E-7	8.515870E-3
1.054500E-7	8.442206E-3
1.055000E-7	8.308584E-3
1.055500E-7	8.156117E-3
1.056000E-7	7.941978E-3
1.056500E-7	7.686725E-3
1.057000E-7	7.429758E-3
1.057500E-7	7.200201E-3
1.058000E-7	7.004907E-3
1.058500E-7	6.869571E-3
1.059000E-7	6.806186E-3
1.059500E-7	6.756506E-3
1.060000E-7	6.693121E-3
1.060500E-7	6.653719E-3
1.061000E-7	6.672563E-3
1.061500E-7	6.698260E-3
1.062000E-7	6.727383E-3
1.062500E-7	6.749653E-3
1.063000E-7	6.763358E-3
1.063500E-7	6.741088E-3
1.064000E-7	6.669137E-3
1.064500E-7	6.561211E-3
1.065000E-7	6.427589E-3
1.065500E-7	6.316237E-3
1.066000E-7	6.204884E-3
1.066500E-7	6.064409E-3
1.067000E-7	5.925648E-3
1.067500E-7	5.848558E-3
1.068000E-7	5.867402E-3
1.068500E-7	6.019869E-3
1.069000E-7	6.316237E-3
1.069500E-7	6.693121E-3
1.070000E-7	7.087136E-3
1.070500E-7	7.493143E-3
1.071000E-7	7.921421E-3
1.071500E-7	8.334280E-3
1.072000E-7	8.668337E-3
1.072500E-7	8.887615E-3
1.073000E-7	9.016098E-3
1.073500E-7	9.052073E-3
1.074000E-7	8.947574E-3
1.074500E-7	8.702599E-3
1.075000E-7	8.370256E-3
1.075500E-7	8.012216E-3
1.076000E-7	7.611348E-3
1.076500E-7	7.195062E-3
1.077000E-7	6.879850E-3
1.077500E-7	6.657145E-3
1.078000E-7	6.436154E-3
1.078500E-7	6.223729E-3
1.079000E-7	6.124368E-3
1.079500E-7	6.100385E-3
1.080000E-7	6.059270E-3
1.080500E-7	6.014729E-3
1.081000E-7	6.004451E-3
1.081500E-7	5.995885E-3
1.082000E-7	6.004451E-3
1.082500E-7	6.074688E-3
1.083000E-7	6.201458E-3
1.083500E-7	6.391613E-3
1.084000E-7	6.658859E-3
1.084500E-7	6.992915E-3
1.085000E-7	7.400635E-3
1.085500E-7	7.852896E-3
1.086000E-7	8.274321E-3
1.086500E-7	8.623796E-3
1.087000E-7	8.904746E-3
1.087500E-7	9.072631E-3
1.088000E-7	9.067491E-3
1.088500E-7	8.939008E-3
1.089000E-7	8.709451E-3
1.089500E-7	8.361690E-3
1.090000E-7	7.938552E-3
1.090500E-7	7.530832E-3
1.091000E-7	7.169365E-3
1.091500E-7	6.807899E-3
1.092000E-7	6.451572E-3
1.092500E-7	6.132934E-3
1.093000E-7	5.908516E-3
1.093500E-7	5.749197E-3
1.094000E-7	5.607009E-3
1.094500E-7	5.490518E-3
1.095000E-7	5.408288E-3
1.095500E-7	5.276379E-3
1.096000E-7	5.074232E-3
1.096500E-7	4.909773E-3
1.097000E-7	4.837823E-3
1.097500E-7	4.786429E-3
1.098000E-7	4.762446E-3
1.098500E-7	4.837823E-3
1.099000E-7	4.971445E-3
1.099500E-7	5.094789E-3
1.100000E-7	5.226699E-3
1.100500E-7	5.391157E-3
1.101000E-7	5.574460E-3
1.101500E-7	5.768041E-3
1.102000E-7	5.944492E-3
1.102500E-7	6.072975E-3
1.103000E-7	6.201458E-3
1.103500E-7	6.367630E-3
1.104000E-7	6.528662E-3
1.104500E-7	6.662285E-3
1.105000E-7	6.792481E-3
1.105500E-7	6.905546E-3
1.106000E-7	6.967218E-3
1.106500E-7	7.028890E-3
1.107000E-7	7.109407E-3
1.107500E-7	7.147095E-3
1.108000E-7	7.138529E-3
1.108500E-7	7.099128E-3
1.109000E-7	6.998054E-3
1.109500E-7	6.804473E-3
1.110000E-7	6.586908E-3
1.110500E-7	6.369343E-3
1.111000E-7	6.177475E-3
1.111500E-7	6.048991E-3
1.112000E-7	5.999311E-3
1.112500E-7	5.990746E-3
1.113000E-7	6.019869E-3
1.113500E-7	6.081541E-3
1.114000E-7	6.124368E-3
1.114500E-7	6.132934E-3
1.115000E-7	6.138073E-3
1.115500E-7	6.148352E-3
1.116000E-7	6.126081E-3
1.116500E-7	6.067836E-3
1.117000E-7	5.989033E-3
1.117500E-7	5.869115E-3
1.118000E-7	5.718361E-3
1.118500E-7	5.588165E-3
1.119000E-7	5.480239E-3
1.119500E-7	5.389444E-3
1.120000E-7	5.339764E-3
1.120500E-7	5.360321E-3
1.121000E-7	5.410001E-3
1.121500E-7	5.468247E-3
1.122000E-7	5.565894E-3
1.122500E-7	5.692665E-3
1.123000E-7	5.774894E-3
1.123500E-7	5.833140E-3
1.124000E-7	5.937639E-3
1.124500E-7	6.074688E-3
1.125000E-7	6.196319E-3
1.125500E-7	6.357351E-3
1.126000E-7	6.583482E-3
1.126500E-7	6.790768E-3
1.127000E-7	6.950087E-3
1.127500E-7	7.117972E-3
1.128000E-7	7.251595E-3
1.128500E-7	7.261873E-3
1.129000E-7	7.159087E-3
1.129500E-7	7.006620E-3
1.130000E-7	6.797621E-3
1.130500E-7	6.525236E-3
1.131000E-7	6.196319E-3
1.131500E-7	5.824574E-3
1.132000E-7	5.475100E-3
1.132500E-7	5.177018E-3
1.133000E-7	4.921765E-3
1.133500E-7	4.741889E-3
1.134000E-7	4.700774E-3
1.134500E-7	4.771011E-3
1.135000E-7	4.890929E-3
1.135500E-7	5.106781E-3
1.136000E-7	5.449403E-3
1.136500E-7	5.846844E-3
1.137000E-7	6.208311E-3
1.137500E-7	6.521810E-3
1.138000E-7	6.802760E-3
1.138500E-7	7.037456E-3
1.139000E-7	7.193349E-3
1.139500E-7	7.263586E-3
1.140000E-7	7.275578E-3
1.140500E-7	7.249882E-3
1.141000E-7	7.177931E-3
1.141500E-7	7.076857E-3
1.142000E-7	6.975784E-3
1.142500E-7	6.840448E-3
1.143000E-7	6.658859E-3
1.143500E-7	6.478982E-3
1.144000E-7	6.338507E-3
1.144500E-7	6.211737E-3
1.145000E-7	6.086680E-3
1.145500E-7	5.970188E-3
1.146000E-7	5.848558E-3
1.146500E-7	5.714935E-3
1.147000E-7	5.593304E-3
1.147500E-7	5.488804E-3
1.148000E-7	5.411715E-3
1.148500E-7	5.365461E-3
1.149000E-7	5.336338E-3
1.149500E-7	5.308928E-3
1.150000E-7	5.308928E-3
1.150500E-7	5.344903E-3
1.151000E-7	5.411715E-3
1.151500E-7	5.504222E-3
1.152000E-7	5.617288E-3
1.152500E-7	5.728640E-3
1.153000E-7	5.822861E-3
1.153500E-7	5.918795E-3
1.154000E-7	6.011303E-3
1.154500E-7	6.110663E-3
1.155000E-7	6.271696E-3
1.155500E-7	6.472130E-3
1.156000E-7	6.614318E-3
1.156500E-7	6.665711E-3
1.157000E-7	6.677703E-3
1.157500E-7	6.658859E-3
1.158000E-7	6.566351E-3
1.158500E-7	6.441294E-3
1.159000E-7	6.359064E-3
1.159500E-7	6.290540E-3
1.160000E-7	6.218589E-3
1.160500E-7	6.170622E-3
1.161000E-7	6.155204E-3
1.161500E-7	6.139786E-3
1.162000E-7	6.127795E-3
1.162500E-7	6.139786E-3
1.163000E-7	6.174048E-3
1.163500E-7	6.215163E-3
1.164000E-7	6.232294E-3
1.164500E-7	6.215163E-3
1.165000E-7	6.165483E-3
1.165500E-7	6.081541E-3
1.166000E-7	5.939352E-3
1.166500E-7	5.740632E-3
1.167000E-7	5.517927E-3
1.167500E-7	5.296936E-3
1.168000E-7	5.113633E-3
1.168500E-7	5.045109E-3
1.169000E-7	5.115346E-3
1.169500E-7	5.279805E-3
1.170000E-7	5.516214E-3
1.170500E-7	5.819435E-3
1.171000E-7	6.132934E-3
1.171500E-7	6.377909E-3
1.172000E-7	6.566351E-3
1.172500E-7	6.711965E-3
1.173000E-7	6.818178E-3
1.173500E-7	6.886702E-3
1.174000E-7	6.878137E-3
1.174500E-7	6.778776E-3
1.175000E-7	6.612605E-3
1.175500E-7	6.431015E-3
1.176000E-7	6.264843E-3
1.176500E-7	6.151778E-3
1.177000E-7	6.086680E-3
1.177500E-7	6.030147E-3
1.178000E-7	5.987319E-3
1.178500E-7	5.999311E-3
1.179000E-7	6.019869E-3
1.179500E-7	6.030147E-3
1.180000E-7	6.074688E-3
1.180500E-7	6.177475E-3
1.181000E-7	6.287114E-3
1.181500E-7	6.347073E-3
1.182000E-7	6.353925E-3
1.182500E-7	6.340220E-3
1.183000E-7	6.271696E-3
1.183500E-7	6.090106E-3
1.184000E-7	5.816008E-3
1.184500E-7	5.526493E-3
1.185000E-7	5.226699E-3
1.185500E-7	4.873798E-3
1.186000E-7	4.493488E-3
1.186500E-7	4.164570E-3
1.187000E-7	3.924735E-3
1.187500E-7	3.767129E-3
1.188000E-7	3.679760E-3
1.188500E-7	3.676334E-3
1.189000E-7	3.748285E-3
1.189500E-7	3.881907E-3
1.190000E-7	4.085767E-3
1.190500E-7	4.376996E-3
1.191000E-7	4.711053E-3
1.191500E-7	5.048535E-3
1.192000E-7	5.379165E-3
1.192500E-7	5.678960E-3
1.193000E-7	5.937639E-3
1.193500E-7	6.180901E-3
1.194000E-7	6.422449E-3
1.194500E-7	6.665711E-3
1.195000E-7	6.866145E-3
1.195500E-7	6.987776E-3
1.196000E-7	7.023751E-3
1.196500E-7	7.004907E-3
1.197000E-7	6.936382E-3
1.197500E-7	6.828456E-3
1.198000E-7	6.667424E-3
1.198500E-7	6.470417E-3
1.199000E-7	6.247712E-3
1.199500E-7	6.038713E-3
1.200000E-7	5.869115E-3
1.200500E-7	5.745771E-3
1.201000E-7	5.699517E-3
1.201500E-7	5.718361E-3
1.202000E-7	5.744058E-3
1.202500E-7	5.778320E-3
1.203000E-7	5.901664E-3
1.203500E-7	6.122655E-3
1.204000E-7	6.311097E-3
1.204500E-7	6.436154E-3
1.205000E-7	6.614318E-3
1.205500E-7	6.821604E-3
1.206000E-7	6.927817E-3
1.206500E-7	6.977497E-3
1.207000E-7	7.061439E-3
1.207500E-7	7.119685E-3
1.208000E-7	7.066579E-3
1.208500E-7	6.986063E-3
1.209000E-7	6.972358E-3
1.209500E-7	6.968932E-3
1.210000E-7	6.879850E-3
1.210500E-7	6.753080E-3
1.211000E-7	6.698260E-3
1.211500E-7	6.660572E-3
1.212000E-7	6.547506E-3
1.212500E-7	6.413884E-3
1.213000E-7	6.343646E-3
1.213500E-7	6.254565E-3
1.214000E-7	6.084967E-3
1.214500E-7	5.927361E-3
1.215000E-7	5.834853E-3
1.215500E-7	5.762902E-3
1.216000E-7	5.697804E-3
1.216500E-7	5.630993E-3
1.217000E-7	5.550476E-3
1.217500E-7	5.445977E-3
1.218000E-7	5.351756E-3
1.218500E-7	5.247256E-3
1.219000E-7	5.134191E-3
1.219500E-7	5.057101E-3
1.220000E-7	5.014273E-3
1.220500E-7	4.961167E-3
1.221000E-7	4.942322E-3
1.221500E-7	4.998855E-3
1.222000E-7	5.089650E-3
1.222500E-7	5.171879E-3
1.223000E-7	5.259248E-3
1.223500E-7	5.346616E-3
1.224000E-7	5.403149E-3
1.224500E-7	5.452829E-3
1.225000E-7	5.541911E-3
1.225500E-7	5.625853E-3
1.226000E-7	5.690951E-3
1.226500E-7	5.750910E-3
1.227000E-7	5.754337E-3
1.227500E-7	5.648124E-3
1.228000E-7	5.552190E-3
1.228500E-7	5.600157E-3
1.229000E-7	5.764615E-3
1.229500E-7	5.983893E-3
1.230000E-7	6.239147E-3
1.230500E-7	6.544080E-3
1.231000E-7	6.861006E-3
1.231500E-7	7.135103E-3
1.232000E-7	7.344103E-3
1.232500E-7	7.477725E-3
1.233000E-7	7.558241E-3
1.233500E-7	7.556528E-3
1.234000E-7	7.458881E-3
1.234500E-7	7.304701E-3
1.235000E-7	7.104267E-3
1.235500E-7	6.814752E-3
1.236000E-7	6.456712E-3
1.236500E-7	6.120942E-3
1.237000E-7	5.874254E-3
1.237500E-7	5.704656E-3
1.238000E-7	5.579599E-3
1.238500E-7	5.476813E-3
1.239000E-7	5.456255E-3
1.239500E-7	5.504222E-3
1.240000E-7	5.509362E-3
1.240500E-7	5.444264E-3
1.241000E-7	5.392870E-3
1.241500E-7	5.348329E-3
1.242000E-7	5.255822E-3
1.242500E-7	5.161600E-3
1.243000E-7	5.139330E-3
1.243500E-7	5.161600E-3
1.244000E-7	5.202715E-3
1.244500E-7	5.252395E-3
1.245000E-7	5.300362E-3
1.245500E-7	5.344903E-3
1.246000E-7	5.408288E-3
1.246500E-7	5.476813E-3
1.247000E-7	5.538485E-3
1.247500E-7	5.583026E-3
1.248000E-7	5.586452E-3
1.248500E-7	5.540198E-3
1.249000E-7	5.445977E-3
1.249500E-7	5.291797E-3
1.250000E-7	5.106781E-3
1.250500E-7	4.971445E-3
1.251000E-7	4.875511E-3
1.251500E-7	4.736749E-3
1.252000E-7	4.551733E-3
1.252500E-7	4.353013E-3
1.253000E-7	4.135448E-3
1.253500E-7	3.914456E-3
1.254000E-7	3.749998E-3
1.254500E-7	3.621515E-3
1.255000E-7	3.511876E-3
1.255500E-7	3.474187E-3
1.256000E-7	3.529007E-3
1.256500E-7	3.623228E-3
1.257000E-7	3.765416E-3
1.257500E-7	4.041227E-3
1.258000E-7	4.399267E-3
1.258500E-7	4.709339E-3
1.259000E-7	4.974871E-3
1.259500E-7	5.271239E-3
1.260000E-7	5.541911E-3
1.260500E-7	5.718361E-3
1.261000E-7	5.828000E-3
1.261500E-7	5.894812E-3
1.262000E-7	5.889672E-3
1.262500E-7	5.824574E-3
1.263000E-7	5.764615E-3
1.263500E-7	5.696091E-3
1.264000E-7	5.619001E-3
1.264500E-7	5.576173E-3
1.265000E-7	5.601870E-3
1.265500E-7	5.680673E-3
1.266000E-7	5.757763E-3
1.266500E-7	5.836566E-3
1.267000E-7	5.971901E-3
1.267500E-7	6.167196E-3
1.268000E-7	6.314523E-3
1.268500E-7	6.324802E-3
1.269000E-7	6.228868E-3
1.269500E-7	6.107237E-3
1.270000E-7	5.956484E-3
1.270500E-7	5.802304E-3
1.271000E-7	5.687525E-3
1.271500E-7	5.593304E-3
1.272000E-7	5.481952E-3
1.272500E-7	5.382592E-3
1.273000E-7	5.327772E-3
1.273500E-7	5.281518E-3
1.274000E-7	5.238690E-3
1.274500E-7	5.206141E-3
1.275000E-7	5.142756E-3
1.275500E-7	5.015986E-3
1.276000E-7	4.854954E-3
1.276500E-7	4.704200E-3
1.277000E-7	4.563725E-3
1.277500E-7	4.462652E-3
1.278000E-7	4.421537E-3
1.278500E-7	4.411258E-3
1.279000E-7	4.448947E-3
1.279500E-7	4.580856E-3
1.280000E-7	4.806987E-3
1.280500E-7	5.087937E-3
1.281000E-7	5.404862E-3
1.281500E-7	5.745771E-3
1.282000E-7	6.062696E-3
1.282500E-7	6.314523E-3
1.283000E-7	6.484121E-3
1.283500E-7	6.590334E-3
1.284000E-7	6.641728E-3
1.284500E-7	6.576629E-3
1.285000E-7	6.329941E-3
1.285500E-7	5.956484E-3
1.286000E-7	5.541911E-3
1.286500E-7	5.091363E-3
1.287000E-7	4.656233E-3
1.287500E-7	4.329029E-3
1.288000E-7	4.101185E-3
1.288500E-7	3.940153E-3
1.289000E-7	3.900751E-3
1.289500E-7	4.003538E-3
1.290000E-7	4.179988E-3
1.290500E-7	4.424963E-3
1.291000E-7	4.741889E-3
1.291500E-7	5.069093E-3
1.292000E-7	5.336338E-3
1.292500E-7	5.553903E-3
1.293000E-7	5.692665E-3
1.293500E-7	5.709796E-3
1.294000E-7	5.642984E-3
1.294500E-7	5.533345E-3
1.295000E-7	5.401436E-3
1.295500E-7	5.298649E-3
1.296000E-7	5.271239E-3
1.296500E-7	5.274666E-3
1.297000E-7	5.305502E-3
1.297500E-7	5.404862E-3
1.298000E-7	5.564181E-3
1.298500E-7	5.711509E-3
1.299000E-7	5.841705E-3
1.299500E-7	5.939352E-3
1.300000E-7	5.958197E-3
1.300500E-7	5.939352E-3
1.301000E-7	5.939352E-3
1.301500E-7	5.889672E-3
1.302000E-7	5.745771E-3
1.302500E-7	5.642984E-3
1.303000E-7	5.649837E-3
1.303500E-7	5.646411E-3
1.304000E-7	5.612148E-3
1.304500E-7	5.665255E-3
1.305000E-7	5.780033E-3
1.305500E-7	5.845131E-3
1.306000E-7	5.884533E-3
1.306500E-7	5.978754E-3
1.307000E-7	6.076401E-3
1.307500E-7	6.107237E-3
1.308000E-7	6.122655E-3
1.308500E-7	6.115803E-3
1.309000E-7	6.057557E-3
1.309500E-7	5.944492E-3
1.310000E-7	5.807443E-3
1.310500E-7	5.668681E-3
1.311000E-7	5.512788E-3
1.311500E-7	5.362034E-3
1.312000E-7	5.216420E-3
1.312500E-7	5.075945E-3
1.313000E-7	4.935470E-3
1.313500E-7	4.789856E-3
1.314000E-7	4.637389E-3
1.314500E-7	4.522610E-3
1.315000E-7	4.452373E-3
1.315500E-7	4.400980E-3
1.316000E-7	4.361578E-3
1.316500E-7	4.359865E-3
1.317000E-7	4.370144E-3
1.317500E-7	4.361578E-3
1.318000E-7	4.366717E-3
1.318500E-7	4.407832E-3
1.319000E-7	4.472930E-3
1.319500E-7	4.567151E-3
1.320000E-7	4.669938E-3
1.320500E-7	4.731610E-3
1.321000E-7	4.774438E-3
1.321500E-7	4.866946E-3
1.322000E-7	5.026265E-3
1.322500E-7	5.173592E-3
1.323000E-7	5.291797E-3
1.323500E-7	5.403149E-3
1.324000E-7	5.488804E-3
1.324500E-7	5.536772E-3
1.325000E-7	5.583026E-3
1.325500E-7	5.603583E-3
1.326000E-7	5.547050E-3
1.326500E-7	5.415141E-3
1.327000E-7	5.242117E-3
1.327500E-7	5.015986E-3
1.328000E-7	4.767585E-3
1.328500E-7	4.585995E-3
1.329000E-7	4.486635E-3
1.329500E-7	4.454086E-3
1.330000E-7	4.483209E-3
1.330500E-7	4.534602E-3
1.331000E-7	4.556873E-3
1.331500E-7	4.620258E-3
1.332000E-7	4.798421E-3
1.332500E-7	5.009134E-3
1.333000E-7	5.190723E-3
1.333500E-7	5.394583E-3
1.334000E-7	5.581312E-3
1.334500E-7	5.654976E-3
1.335000E-7	5.665255E-3
1.335500E-7	5.661829E-3
1.336000E-7	5.617288E-3
1.336500E-7	5.541911E-3
1.337000E-7	5.493944E-3
1.337500E-7	5.403149E-3
1.338000E-7	5.219846E-3
1.338500E-7	5.043396E-3
1.339000E-7	4.940609E-3
1.339500E-7	4.848101E-3
1.340000E-7	4.724757E-3
1.340500E-7	4.596274E-3
1.341000E-7	4.490061E-3
1.341500E-7	4.402693E-3
1.342000E-7	4.349586E-3
1.342500E-7	4.354726E-3
1.343000E-7	4.388988E-3
1.343500E-7	4.438668E-3
1.344000E-7	4.532889E-3
1.344500E-7	4.669938E-3
1.345000E-7	4.803560E-3
1.345500E-7	4.925191E-3
1.346000E-7	5.108494E-3
1.346500E-7	5.303789E-3
1.347000E-7	5.411715E-3
1.347500E-7	5.445977E-3
1.348000E-7	5.421993E-3
1.348500E-7	5.320920E-3
1.349000E-7	5.223272E-3
1.349500E-7	5.194150E-3
1.350000E-7	5.123912E-3
1.350500E-7	4.959453E-3
1.351000E-7	4.824118E-3
1.351500E-7	4.777864E-3
1.352000E-7	4.743602E-3
1.352500E-7	4.688782E-3
1.353000E-7	4.645954E-3
1.353500E-7	4.618545E-3
1.354000E-7	4.604840E-3
1.354500E-7	4.630536E-3
1.355000E-7	4.688782E-3
1.355500E-7	4.769298E-3
1.356000E-7	4.890929E-3
1.356500E-7	5.009134E-3
1.357000E-7	5.077658E-3
1.357500E-7	5.122199E-3
1.358000E-7	5.170166E-3
1.358500E-7	5.189010E-3
1.359000E-7	5.194150E-3
1.359500E-7	5.226699E-3
1.360000E-7	5.255822E-3
1.360500E-7	5.267813E-3
1.361000E-7	5.296936E-3
1.361500E-7	5.327772E-3
1.362000E-7	5.303789E-3
1.362500E-7	5.303789E-3
1.363000E-7	5.375739E-3
1.363500E-7	5.418567E-3
1.364000E-7	5.348329E-3
1.364500E-7	5.250682E-3
1.365000E-7	5.146182E-3
1.365500E-7	4.978298E-3
1.366000E-7	4.735036E-3
1.366500E-7	4.478070E-3
1.367000E-7	4.231382E-3
1.367500E-7	4.032661E-3
1.368000E-7	3.914456E-3
1.368500E-7	3.885334E-3
1.369000E-7	3.904178E-3
1.369500E-7	3.952145E-3
1.370000E-7	4.039513E-3
1.370500E-7	4.162857E-3
1.371000E-7	4.301619E-3
1.371500E-7	4.447234E-3
1.372000E-7	4.579143E-3
1.372500E-7	4.683643E-3
1.373000E-7	4.753880E-3
1.373500E-7	4.801847E-3
1.374000E-7	4.841249E-3
1.374500E-7	4.825831E-3
1.375000E-7	4.750454E-3
1.375500E-7	4.695635E-3
1.376000E-7	4.726471E-3
1.376500E-7	4.830970E-3
1.377000E-7	4.950888E-3
1.377500E-7	5.086224E-3
1.378000E-7	5.219846E-3
1.378500E-7	5.302075E-3
1.379000E-7	5.343190E-3
1.379500E-7	5.404862E-3
1.380000E-7	5.464821E-3
1.380500E-7	5.449403E-3
1.381000E-7	5.379165E-3
1.381500E-7	5.331198E-3
1.382000E-7	5.269526E-3
1.382500E-7	5.187297E-3
1.383000E-7	5.147896E-3
1.383500E-7	5.141043E-3
1.384000E-7	5.081084E-3
1.384500E-7	4.990289E-3
1.385000E-7	4.937183E-3
1.385500E-7	4.863519E-3
1.386000E-7	4.711053E-3
1.386500E-7	4.550020E-3
1.387000E-7	4.435242E-3
1.387500E-7	4.323890E-3
1.388000E-7	4.205685E-3
1.388500E-7	4.101185E-3
1.389000E-7	4.020669E-3
1.389500E-7	3.965850E-3
1.390000E-7	3.969276E-3
1.390500E-7	4.029235E-3
1.391000E-7	4.121743E-3
1.391500E-7	4.272496E-3
1.392000E-7	4.448947E-3
1.392500E-7	4.608266E-3
1.393000E-7	4.738462E-3
1.393500E-7	4.870372E-3
1.394000E-7	4.950888E-3
1.394500E-7	4.904634E-3
1.395000E-7	4.764159E-3
1.395500E-7	4.565438E-3
1.396000E-7	4.305045E-3
1.396500E-7	4.017243E-3
1.397000E-7	3.758563E-3
1.397500E-7	3.571834E-3
1.398000E-7	3.446777E-3
1.398500E-7	3.405663E-3
1.399000E-7	3.475900E-3
1.399500E-7	3.700318E-3
1.400000E-7	4.027522E-3
1.400500E-7	4.380422E-3
1.401000E-7	4.726471E-3
1.401500E-7	5.062240E-3
1.402000E-7	5.303789E-3
1.402500E-7	5.411715E-3
1.403000E-7	5.442550E-3
1.403500E-7	5.398010E-3
1.404000E-7	5.271239E-3
1.404500E-7	5.111920E-3
1.405000E-7	4.992003E-3
1.405500E-7	4.904634E-3
1.406000E-7	4.853241E-3
1.406500E-7	4.877224E-3
1.407000E-7	4.957740E-3
1.407500E-7	5.070806E-3
1.408000E-7	5.221559E-3
1.408500E-7	5.368887E-3
1.409000E-7	5.466534E-3
1.409500E-7	5.523067E-3
1.410000E-7	5.521354E-3
1.410500E-7	5.406575E-3
1.411000E-7	5.207854E-3
1.411500E-7	4.964593E-3
1.412000E-7	4.640815E-3
1.412500E-7	4.289627E-3
1.413000E-7	4.018956E-3
1.413500E-7	3.811670E-3
1.414000E-7	3.616375E-3
1.414500E-7	3.511876E-3
1.415000E-7	3.522154E-3
1.415500E-7	3.602670E-3
1.416000E-7	3.773981E-3
1.416500E-7	4.068636E-3
1.417000E-7	4.388988E-3
1.417500E-7	4.661372E-3
1.418000E-7	4.885790E-3
1.418500E-7	5.046822E-3
1.419000E-7	5.091363E-3
1.419500E-7	5.055388E-3
1.420000E-7	4.980011E-3
1.420500E-7	4.849814E-3
1.421000E-7	4.683643E-3
1.421500E-7	4.536315E-3
1.422000E-7	4.424963E-3
1.422500E-7	4.329029E-3
1.423000E-7	4.277636E-3
1.423500E-7	4.303332E-3
1.424000E-7	4.399267E-3
1.424500E-7	4.526037E-3
1.425000E-7	4.690495E-3
1.425500E-7	4.878937E-3
1.426000E-7	5.015986E-3
1.426500E-7	5.096502E-3
1.427000E-7	5.177018E-3
1.427500E-7	5.211281E-3
1.428000E-7	5.141043E-3
1.428500E-7	5.041683E-3
1.429000E-7	5.005707E-3
1.429500E-7	4.971445E-3
1.430000E-7	4.906347E-3
1.430500E-7	4.873798E-3
1.431000E-7	4.863519E-3
1.431500E-7	4.810413E-3
1.432000E-7	4.726471E-3
1.432500E-7	4.659659E-3
1.433000E-7	4.563725E-3
1.433500E-7	4.423250E-3
1.434000E-7	4.270783E-3
1.434500E-7	4.149152E-3
1.435000E-7	4.070349E-3
1.435500E-7	4.005251E-3
1.436000E-7	3.945292E-3
1.436500E-7	3.923022E-3
1.437000E-7	3.952145E-3
1.437500E-7	4.006964E-3
1.438000E-7	4.085767E-3
1.438500E-7	4.185128E-3
1.439000E-7	4.277636E-3
1.439500E-7	4.359865E-3
1.440000E-7	4.424963E-3
1.440500E-7	4.423250E-3
1.441000E-7	4.332455E-3
1.441500E-7	4.214251E-3
1.442000E-7	4.101185E-3
1.442500E-7	3.958997E-3
1.443000E-7	3.813383E-3
1.443500E-7	3.696891E-3
1.444000E-7	3.611236E-3
1.444500E-7	3.573547E-3
1.445000E-7	3.618088E-3
1.445500E-7	3.698605E-3
1.446000E-7	3.806530E-3
1.446500E-7	3.969276E-3
1.447000E-7	4.145726E-3
1.447500E-7	4.274209E-3
1.448000E-7	4.344447E-3
1.448500E-7	4.376996E-3
1.449000E-7	4.399267E-3
1.449500E-7	4.416398E-3
1.450000E-7	4.407832E-3
1.450500E-7	4.349586E-3
1.451000E-7	4.269070E-3
1.451500E-7	4.178275E-3
1.452000E-7	4.061784E-3
1.452500E-7	3.948719E-3
1.453000E-7	3.883620E-3
1.453500E-7	3.856211E-3
1.454000E-7	3.832227E-3
1.454500E-7	3.806530E-3
1.455000E-7	3.799678E-3
1.455500E-7	3.828801E-3
1.456000E-7	3.880194E-3
1.456500E-7	3.950432E-3
1.457000E-7	4.041227E-3
1.457500E-7	4.140587E-3
1.458000E-7	4.246800E-3
1.458500E-7	4.359865E-3
1.459000E-7	4.479783E-3
1.459500E-7	4.591135E-3
1.460000E-7	4.652807E-3
1.460500E-7	4.644241E-3
1.461000E-7	4.599700E-3
1.461500E-7	4.541455E-3
1.462000E-7	4.467791E-3
1.462500E-7	4.385562E-3
1.463000E-7	4.299906E-3
1.463500E-7	4.181702E-3
1.464000E-7	4.073776E-3
1.464500E-7	4.041227E-3
1.465000E-7	4.077202E-3
1.465500E-7	4.109751E-3
1.466000E-7	4.169710E-3
1.466500E-7	4.296480E-3
1.467000E-7	4.388988E-3
1.467500E-7	4.375283E-3
1.468000E-7	4.281062E-3
1.468500E-7	4.164570E-3
1.469000E-7	4.017243E-3
1.469500E-7	3.861350E-3
1.470000E-7	3.739719E-3
1.470500E-7	3.688326E-3
1.471000E-7	3.693465E-3
1.471500E-7	3.782547E-3
1.472000E-7	3.967563E-3
1.472500E-7	4.231382E-3
1.473000E-7	4.527750E-3
1.473500E-7	4.817265E-3
1.474000E-7	5.067379E-3
1.474500E-7	5.257535E-3
1.475000E-7	5.384305E-3
1.475500E-7	5.476813E-3
1.476000E-7	5.535058E-3
1.476500E-7	5.562468E-3
1.477000E-7	5.576173E-3
1.477500E-7	5.583026E-3
1.478000E-7	5.583026E-3
1.478500E-7	5.601870E-3
1.479000E-7	5.644697E-3
1.479500E-7	5.699517E-3
1.480000E-7	5.761189E-3
1.480500E-7	5.812582E-3
1.481000E-7	5.800590E-3
1.481500E-7	5.704656E-3
1.482000E-7	5.560755E-3
1.482500E-7	5.382592E-3
1.483000E-7	5.117060E-3
1.483500E-7	4.779577E-3
1.484000E-7	4.474643E-3
1.484500E-7	4.250226E-3
1.485000E-7	4.087480E-3
1.485500E-7	4.030948E-3
1.486000E-7	4.123456E-3
1.486500E-7	4.293054E-3
1.487000E-7	4.484922E-3
1.487500E-7	4.690495E-3
1.488000E-7	4.865232E-3
1.488500E-7	4.973158E-3
1.489000E-7	5.069093E-3
1.489500E-7	5.147896E-3
1.490000E-7	5.125625E-3
1.490500E-7	4.986863E-3
1.491000E-7	4.793282E-3
1.491500E-7	4.575717E-3
1.492000E-7	4.366717E-3
1.492500E-7	4.203972E-3
1.493000E-7	4.096046E-3
1.493500E-7	4.039513E-3
1.494000E-7	4.039513E-3
1.494500E-7	4.070349E-3
1.495000E-7	4.096046E-3
1.495500E-7	4.102898E-3
1.496000E-7	4.111464E-3
1.496500E-7	4.116603E-3
1.497000E-7	4.089194E-3
1.497500E-7	4.027522E-3
1.498000E-7	3.933301E-3
1.498500E-7	3.840793E-3
1.499000E-7	3.791112E-3
1.499500E-7	3.816809E-3
1.500000E-7	3.885334E-3
1.500500E-7	3.947005E-3
1.501000E-7	4.005251E-3
1.501500E-7	4.087480E-3
1.502000E-7	4.186841E-3
1.502500E-7	4.293054E-3
1.503000E-7	4.388988E-3
1.503500E-7	4.428389E-3
1.504000E-7	4.402693E-3
1.504500E-7	4.363291E-3
1.505000E-7	4.334168E-3
1.505500E-7	4.274209E-3
1.506000E-7	4.176562E-3
1.506500E-7	4.102898E-3
1.507000E-7	4.082341E-3
1.507500E-7	4.065210E-3
1.508000E-7	4.056645E-3
1.508500E-7	4.099472E-3
1.509000E-7	4.190267E-3
1.509500E-7	4.274209E-3
1.510000E-7	4.390701E-3
1.510500E-7	4.568864E-3
1.511000E-7	4.721331E-3
1.511500E-7	4.793282E-3
1.512000E-7	4.810413E-3
1.512500E-7	4.779577E-3
1.513000E-7	4.669938E-3
1.513500E-7	4.526037E-3
1.514000E-7	4.399267E-3
1.514500E-7	4.248513E-3
1.515000E-7	4.070349E-3
1.515500E-7	3.928161E-3
1.516000E-7	3.804817E-3
1.516500E-7	3.652351E-3
1.517000E-7	3.520441E-3
1.517500E-7	3.460482E-3
1.518000E-7	3.469048E-3
1.518500E-7	3.546138E-3
1.519000E-7	3.647211E-3
1.519500E-7	3.731154E-3
1.520000E-7	3.808244E-3
1.520500E-7	3.911030E-3
1.521000E-7	3.981268E-3
1.521500E-7	3.974415E-3
1.522000E-7	3.926448E-3
1.522500E-7	3.861350E-3
1.523000E-7	3.780834E-3
1.523500E-7	3.691752E-3
1.524000E-7	3.590679E-3
1.524500E-7	3.503310E-3
1.525000E-7	3.450204E-3
1.525500E-7	3.386818E-3
1.526000E-7	3.302876E-3
1.526500E-7	3.273753E-3
1.527000E-7	3.342278E-3
1.527500E-7	3.439925E-3
1.528000E-7	3.540998E-3
1.528500E-7	3.696891E-3
1.529000E-7	3.911030E-3
1.529500E-7	4.116603E-3
1.530000E-7	4.286201E-3
1.530500E-7	4.455799E-3
1.531000E-7	4.589422E-3
1.531500E-7	4.627110E-3
1.532000E-7	4.620258E-3
1.532500E-7	4.640815E-3
1.533000E-7	4.654520E-3
1.533500E-7	4.627110E-3
1.534000E-7	4.604840E-3
1.534500E-7	4.604840E-3
1.535000E-7	4.608266E-3
1.535500E-7	4.585995E-3
1.536000E-7	4.527750E-3
1.536500E-7	4.435242E-3
1.537000E-7	4.341021E-3
1.537500E-7	4.265644E-3
1.538000E-7	4.173136E-3
1.538500E-7	4.075489E-3
1.539000E-7	4.000112E-3
1.539500E-7	3.923022E-3
1.540000E-7	3.864776E-3
1.540500E-7	3.844219E-3
1.541000E-7	3.863063E-3
1.541500E-7	3.933301E-3
1.542000E-7	4.072062E-3
1.542500E-7	4.234808E-3
1.543000E-7	4.371857E-3
1.543500E-7	4.493488E-3
1.544000E-7	4.570578E-3
1.544500E-7	4.565438E-3
1.545000E-7	4.490061E-3
1.545500E-7	4.399267E-3
1.546000E-7	4.306759E-3
1.546500E-7	4.219390E-3
1.547000E-7	4.123456E-3
1.547500E-7	3.991546E-3
1.548000E-7	3.856211E-3
1.548500E-7	3.743145E-3
1.549000E-7	3.609523E-3
1.549500E-7	3.455343E-3
1.550000E-7	3.345704E-3
1.550500E-7	3.320007E-3
1.551000E-7	3.330286E-3
1.551500E-7	3.342278E-3
1.552000E-7	3.403950E-3
1.552500E-7	3.547851E-3
1.553000E-7	3.746572E-3
1.553500E-7	3.940153E-3
1.554000E-7	4.133734E-3
1.554500E-7	4.347873E-3
1.555000E-7	4.551733E-3
1.555500E-7	4.688782E-3
1.556000E-7	4.762446E-3
1.556500E-7	4.771011E-3
1.557000E-7	4.668225E-3
1.557500E-7	4.467791E-3
1.558000E-7	4.219390E-3
1.558500E-7	3.931587E-3
1.559000E-7	3.619801E-3
1.559500E-7	3.340565E-3
1.560000E-7	3.126426E-3
1.560500E-7	2.980811E-3
1.561000E-7	2.948262E-3
1.561500E-7	3.069893E-3
1.562000E-7	3.309729E-3
1.562500E-7	3.623228E-3
1.563000E-7	4.024095E-3
1.563500E-7	4.478070E-3
1.564000E-7	4.896068E-3
1.564500E-7	5.247256E-3
1.565000E-7	5.528206E-3
1.565500E-7	5.701230E-3
1.566000E-7	5.723501E-3
1.566500E-7	5.591591E-3
1.567000E-7	5.353469E-3
1.567500E-7	5.026265E-3
1.568000E-7	4.656233E-3
1.568500E-7	4.263931E-3
1.569000E-7	3.864776E-3
1.569500E-7	3.453630E-3
1.570000E-7	3.066467E-3
1.570500E-7	2.775238E-3
1.571000E-7	2.626198E-3
1.571500E-7	2.585083E-3
1.572000E-7	2.615919E-3
1.572500E-7	2.705001E-3
1.573000E-7	2.891730E-3
1.573500E-7	3.152122E-3
1.574000E-7	3.427933E-3
1.574500E-7	3.707170E-3
1.575000E-7	3.981268E-3
1.575500E-7	4.227956E-3
1.576000E-7	4.390701E-3
1.576500E-7	4.526037E-3
1.577000E-7	4.654520E-3
1.577500E-7	4.717905E-3
1.578000E-7	4.719618E-3
1.578500E-7	4.714479E-3
1.579000E-7	4.709339E-3
1.579500E-7	4.678503E-3
1.580000E-7	4.640815E-3
1.580500E-7	4.627110E-3
1.581000E-7	4.587709E-3
1.581500E-7	4.517471E-3
1.582000E-7	4.443807E-3
1.582500E-7	4.353013E-3
1.583000E-7	4.239947E-3
1.583500E-7	4.157718E-3
1.584000E-7	4.108038E-3
1.584500E-7	4.034374E-3
1.585000E-7	3.981268E-3
1.585500E-7	4.000112E-3
1.586000E-7	4.027522E-3
1.586500E-7	4.039513E-3
1.587000E-7	4.065210E-3
1.587500E-7	4.075489E-3
1.588000E-7	4.006964E-3
1.588500E-7	3.893899E-3
1.589000E-7	3.804817E-3
1.589500E-7	3.731154E-3
1.590000E-7	3.662629E-3
1.590500E-7	3.609523E-3
1.591000E-7	3.566695E-3
1.591500E-7	3.496458E-3
1.592000E-7	3.421081E-3
1.592500E-7	3.367974E-3
1.593000E-7	3.284032E-3
1.593500E-7	3.155549E-3
1.594000E-7	3.008221E-3
1.594500E-7	2.859181E-3
1.595000E-7	2.687870E-3
1.595500E-7	2.516559E-3
1.596000E-7	2.365805E-3
1.596500E-7	2.249313E-3
1.597000E-7	2.191068E-3
1.597500E-7	2.199633E-3
1.598000E-7	2.266445E-3
1.598500E-7	2.406920E-3
1.599000E-7	2.646755E-3
1.599500E-7	2.941410E-3
1.600000E-7	3.242917E-3
1.600500E-7	3.537572E-3
1.601000E-7	3.811670E-3
1.601500E-7	4.049792E-3
1.602000E-7	4.262218E-3
1.602500E-7	4.423250E-3
1.603000E-7	4.483209E-3
1.603500E-7	4.414684E-3
1.604000E-7	4.267357E-3
1.604500E-7	4.102898E-3
1.605000E-7	3.950432E-3
1.605500E-7	3.827088E-3
1.606000E-7	3.744858E-3
1.606500E-7	3.714023E-3
1.607000E-7	3.729440E-3
1.607500E-7	3.801391E-3
1.608000E-7	3.948719E-3
1.608500E-7	4.118316E-3
1.609000E-7	4.238234E-3
1.609500E-7	4.327316E-3
1.610000E-7	4.430102E-3
1.610500E-7	4.517471E-3
1.611000E-7	4.565438E-3
1.611500E-7	4.580856E-3
1.612000E-7	4.527750E-3
1.612500E-7	4.409545E-3
1.613000E-7	4.299906E-3
1.613500E-7	4.241660E-3
1.614000E-7	4.197120E-3
1.614500E-7	4.193693E-3
1.615000E-7	4.255365E-3
1.615500E-7	4.332455E-3
1.616000E-7	4.392414E-3
1.616500E-7	4.462652E-3
1.617000E-7	4.488348E-3
1.617500E-7	4.409545E-3
1.618000E-7	4.236521E-3
1.618500E-7	4.030948E-3
1.619000E-7	3.837366E-3
1.619500E-7	3.676334E-3
1.620000E-7	3.520441E-3
1.620500E-7	3.362835E-3
1.621000E-7	3.265188E-3
1.621500E-7	3.241204E-3
1.622000E-7	3.261761E-3
1.622500E-7	3.355983E-3
1.623000E-7	3.534146E-3
1.623500E-7	3.715736E-3
1.624000E-7	3.856211E-3
1.624500E-7	4.030948E-3
1.625000E-7	4.222816E-3
1.625500E-7	4.330742E-3
1.626000E-7	4.347873E-3
1.626500E-7	4.375283E-3
1.627000E-7	4.411258E-3
1.627500E-7	4.394127E-3
1.628000E-7	4.353013E-3
1.628500E-7	4.354726E-3
1.629000E-7	4.366717E-3
1.629500E-7	4.353013E-3
1.630000E-7	4.323890E-3
1.630500E-7	4.329029E-3
1.631000E-7	4.337595E-3
1.631500E-7	4.311898E-3
1.632000E-7	4.277636E-3
1.632500E-7	4.262218E-3
1.633000E-7	4.239947E-3
1.633500E-7	4.197120E-3
1.634000E-7	4.178275E-3
1.634500E-7	4.190267E-3
1.635000E-7	4.178275E-3
1.635500E-7	4.123456E-3
1.636000E-7	4.068636E-3
1.636500E-7	4.029235E-3
1.637000E-7	4.012104E-3
1.637500E-7	4.029235E-3
1.638000E-7	4.072062E-3
1.638500E-7	4.101185E-3
1.639000E-7	4.133734E-3
1.639500E-7	4.205685E-3
1.640000E-7	4.277636E-3
1.640500E-7	4.299906E-3
1.641000E-7	4.339308E-3
1.641500E-7	4.438668E-3
1.642000E-7	4.534602E-3
1.642500E-7	4.587709E-3
1.643000E-7	4.620258E-3
1.643500E-7	4.618545E-3
1.644000E-7	4.544881E-3
1.644500E-7	4.433529E-3
1.645000E-7	4.281062E-3
1.645500E-7	4.049792E-3
1.646000E-7	3.775694E-3
1.646500E-7	3.534146E-3
1.647000E-7	3.294311E-3
1.647500E-7	3.023639E-3
1.648000E-7	2.790656E-3
1.648500E-7	2.645042E-3
1.649000E-7	2.513132E-3
1.649500E-7	2.391502E-3
1.650000E-7	2.367518E-3
1.650500E-7	2.465165E-3
1.651000E-7	2.636476E-3
1.651500E-7	2.848902E-3
1.652000E-7	3.121286E-3
1.652500E-7	3.446777E-3
1.653000E-7	3.796252E-3
1.653500E-7	4.116603E-3
1.654000E-7	4.388988E-3
1.654500E-7	4.632249E-3
1.655000E-7	4.844675E-3
1.655500E-7	4.964593E-3
1.656000E-7	4.969732E-3
1.656500E-7	4.928617E-3
1.657000E-7	4.909773E-3
1.657500E-7	4.887503E-3
1.658000E-7	4.800134E-3
1.658500E-7	4.620258E-3
1.659000E-7	4.426676E-3
1.659500E-7	4.258791E-3
1.660000E-7	4.099472E-3
1.660500E-7	3.926448E-3
1.661000E-7	3.784260E-3
1.661500E-7	3.693465E-3
1.662000E-7	3.626654E-3
1.662500E-7	3.580400E-3
1.663000E-7	3.542711E-3
1.663500E-7	3.498171E-3
1.664000E-7	3.475900E-3
1.664500E-7	3.487892E-3
1.665000E-7	3.493031E-3
1.665500E-7	3.441638E-3
1.666000E-7	3.386818E-3
1.666500E-7	3.374827E-3
1.667000E-7	3.357696E-3
1.667500E-7	3.302876E-3
1.668000E-7	3.260048E-3
1.668500E-7	3.268614E-3
1.669000E-7	3.302876E-3
1.669500E-7	3.335425E-3
1.670000E-7	3.373114E-3
1.670500E-7	3.460482E-3
1.671000E-7	3.602670E-3
1.671500E-7	3.760276E-3
1.672000E-7	3.880194E-3
1.672500E-7	3.967563E-3
1.673000E-7	4.024095E-3
1.673500E-7	4.032661E-3
1.674000E-7	3.989833E-3
1.674500E-7	3.912743E-3
1.675000E-7	3.796252E-3
1.675500E-7	3.633506E-3
1.676000E-7	3.445064E-3
1.676500E-7	3.232639E-3
1.677000E-7	2.997943E-3
1.677500E-7	2.814640E-3
1.678000E-7	2.746115E-3
1.678500E-7	2.759820E-3
1.679000E-7	2.814640E-3
1.679500E-7	2.900295E-3
1.680000E-7	3.013361E-3
1.680500E-7	3.162401E-3
1.681000E-7	3.338851E-3
1.681500E-7	3.515302E-3
1.682000E-7	3.676334E-3
1.682500E-7	3.811670E-3
1.683000E-7	3.868202E-3
1.683500E-7	3.806530E-3
1.684000E-7	3.676334E-3
1.684500E-7	3.554703E-3
1.685000E-7	3.460482E-3
1.685500E-7	3.364548E-3
1.686000E-7	3.246343E-3
1.686500E-7	3.134991E-3
1.687000E-7	3.059614E-3
1.687500E-7	3.016787E-3
1.688000E-7	2.994516E-3
1.688500E-7	2.975672E-3
1.689000E-7	2.958541E-3
1.689500E-7	2.943123E-3
1.690000E-7	2.936271E-3
1.690500E-7	2.937984E-3
1.691000E-7	2.907148E-3
1.691500E-7	2.821492E-3
1.692000E-7	2.734124E-3
1.692500E-7	2.684443E-3
1.693000E-7	2.667312E-3
1.693500E-7	2.675878E-3
1.694000E-7	2.752968E-3
1.694500E-7	2.886590E-3
1.695000E-7	3.068180E-3
1.695500E-7	3.314868E-3
1.696000E-7	3.602670E-3
1.696500E-7	3.818522E-3
1.697000E-7	3.958997E-3
1.697500E-7	4.065210E-3
1.698000E-7	4.096046E-3
1.698500E-7	4.015530E-3
1.699000E-7	3.909317E-3
1.699500E-7	3.803104E-3
1.700000E-7	3.645498E-3
1.700500E-7	3.467335E-3
1.701000E-7	3.337138E-3
1.701500E-7	3.229212E-3
1.702000E-7	3.157262E-3
1.702500E-7	3.179532E-3
1.703000E-7	3.266901E-3
1.703500E-7	3.376540E-3
1.704000E-7	3.487892E-3
1.704500E-7	3.573547E-3
1.705000E-7	3.609523E-3
1.705500E-7	3.628367E-3
1.706000E-7	3.631793E-3
1.706500E-7	3.599244E-3
1.707000E-7	3.564982E-3
1.707500E-7	3.558129E-3
1.708000E-7	3.544425E-3
1.708500E-7	3.517015E-3
1.709000E-7	3.547851E-3
1.709500E-7	3.604383E-3
1.710000E-7	3.614662E-3
1.710500E-7	3.612949E-3
1.711000E-7	3.616375E-3
1.711500E-7	3.576974E-3
1.712000E-7	3.503310E-3
1.712500E-7	3.393671E-3
1.713000E-7	3.210368E-3
1.713500E-7	2.939697E-3
1.714000E-7	2.682730E-3
1.714500E-7	2.477157E-3
1.715000E-7	2.319551E-3
1.715500E-7	2.256166E-3
1.716000E-7	2.346961E-3
1.716500E-7	2.557673E-3
1.717000E-7	2.835197E-3
1.717500E-7	3.134991E-3
1.718000E-7	3.409089E-3
1.718500E-7	3.645498E-3
1.719000E-7	3.868202E-3
1.719500E-7	4.010391E-3
1.720000E-7	4.018956E-3
1.720500E-7	3.967563E-3
1.721000E-7	3.926448E-3
1.721500E-7	3.847645E-3
1.722000E-7	3.686613E-3
1.722500E-7	3.518728E-3
1.723000E-7	3.393671E-3
1.723500E-7	3.273753E-3
1.724000E-7	3.169254E-3
1.724500E-7	3.111008E-3
1.725000E-7	3.087024E-3
1.725500E-7	3.085311E-3
1.726000E-7	3.109295E-3
1.726500E-7	3.160688E-3
1.727000E-7	3.237778E-3
1.727500E-7	3.345704E-3
1.728000E-7	3.463908E-3
1.728500E-7	3.552990E-3
1.729000E-7	3.578687E-3
1.729500E-7	3.564982E-3
1.730000E-7	3.540998E-3
1.730500E-7	3.520441E-3
1.731000E-7	3.505023E-3
1.731500E-7	3.493031E-3
1.732000E-7	3.465622E-3
1.732500E-7	3.366261E-3
1.733000E-7	3.203516E-3
1.733500E-7	3.016787E-3
1.734000E-7	2.812927E-3
1.734500E-7	2.578231E-3
1.735000E-7	2.367518E-3
1.735500E-7	2.184215E-3
1.736000E-7	2.000912E-3
1.736500E-7	1.827888E-3
1.737000E-7	1.713110E-3
1.737500E-7	1.666856E-3
1.738000E-7	1.673708E-3
1.738500E-7	1.762790E-3
1.739000E-7	1.942667E-3
1.739500E-7	2.172223E-3
1.740000E-7	2.418911E-3
1.740500E-7	2.694722E-3
1.741000E-7	2.992803E-3
1.741500E-7	3.263475E-3
1.742000E-7	3.474187E-3
1.742500E-7	3.618088E-3
1.743000E-7	3.696891E-3
1.743500E-7	3.691752E-3
1.744000E-7	3.621515E-3
1.744500E-7	3.537572E-3
1.745000E-7	3.446777E-3
1.745500E-7	3.304589E-3
1.746000E-7	3.087024E-3
1.746500E-7	2.879738E-3
1.747000E-7	2.718706E-3
1.747500E-7	2.545681E-3
1.748000E-7	2.350387E-3
1.748500E-7	2.172223E-3
1.749000E-7	2.026609E-3
1.749500E-7	1.915257E-3
1.750000E-7	1.860437E-3
1.750500E-7	1.857011E-3
1.751000E-7	1.877569E-3
1.751500E-7	1.940954E-3
1.752000E-7	2.019757E-3
1.752500E-7	2.093420E-3
1.753000E-7	2.208199E-3
1.753500E-7	2.382936E-3
1.754000E-7	2.610780E-3
1.754500E-7	2.871172E-3
1.755000E-7	3.158975E-3
1.755500E-7	3.391958E-3
1.756000E-7	3.534146E-3
1.756500E-7	3.642072E-3
1.757000E-7	3.746572E-3
1.757500E-7	3.801391E-3
1.758000E-7	3.791112E-3
1.758500E-7	3.743145E-3
1.759000E-7	3.647211E-3
1.759500E-7	3.484466E-3
1.760000E-7	3.273753E-3
1.760500E-7	3.051049E-3
1.761000E-7	2.859181E-3
1.761500E-7	2.708427E-3
1.762000E-7	2.605640E-3
1.762500E-7	2.600501E-3
1.763000E-7	2.682730E-3
1.763500E-7	2.761533E-3
1.764000E-7	2.831771E-3
1.764500E-7	2.937984E-3
1.765000E-7	3.075032E-3
1.765500E-7	3.167540E-3
1.766000E-7	3.237778E-3
1.766500E-7	3.326860E-3
1.767000E-7	3.409089E-3
1.767500E-7	3.412515E-3
1.768000E-7	3.333712E-3
1.768500E-7	3.229212E-3
1.769000E-7	3.140131E-3
1.769500E-7	3.040770E-3
1.770000E-7	2.929418E-3
1.770500E-7	2.857467E-3
1.771000E-7	2.830058E-3
1.771500E-7	2.794082E-3
1.772000E-7	2.756394E-3
1.772500E-7	2.740976E-3
1.773000E-7	2.740976E-3
1.773500E-7	2.740976E-3
1.774000E-7	2.720419E-3
1.774500E-7	2.655321E-3
1.775000E-7	2.545681E-3
1.775500E-7	2.436042E-3
1.776000E-7	2.334969E-3
1.776500E-7	2.275010E-3
1.777000E-7	2.304133E-3
1.777500E-7	2.406920E-3
1.778000E-7	2.559386E-3
1.778500E-7	2.752968E-3
1.779000E-7	2.970533E-3
1.779500E-7	3.170967E-3
1.780000E-7	3.357696E-3
1.780500E-7	3.520441E-3
1.781000E-7	3.650637E-3
1.781500E-7	3.765416E-3
1.782000E-7	3.842506E-3
1.782500E-7	3.863063E-3
1.783000E-7	3.837366E-3
1.783500E-7	3.773981E-3
1.784000E-7	3.654064E-3
1.784500E-7	3.525580E-3
1.785000E-7	3.402236E-3
1.785500E-7	3.261761E-3
1.786000E-7	3.114434E-3
1.786500E-7	2.985951E-3
1.787000E-7	2.862607E-3
1.787500E-7	2.740976E-3
1.788000E-7	2.621058E-3
1.788500E-7	2.480583E-3
1.789000E-7	2.346961E-3
1.789500E-7	2.257879E-3
1.790000E-7	2.192781E-3
1.790500E-7	2.088281E-3
1.791000E-7	1.995773E-3
1.791500E-7	1.964937E-3
1.792000E-7	1.940954E-3
1.792500E-7	1.872429E-3
1.793000E-7	1.812470E-3
1.793500E-7	1.785061E-3
1.794000E-7	1.783348E-3
1.794500E-7	1.827888E-3
1.795000E-7	1.942667E-3
1.795500E-7	2.093420E-3
1.796000E-7	2.264731E-3
1.796500E-7	2.484010E-3
1.797000E-7	2.730697E-3
1.797500E-7	2.961967E-3
1.798000E-7	3.212081E-3
1.798500E-7	3.484466E-3
1.799000E-7	3.719162E-3
1.799500E-7	3.890473E-3
1.800000E-7	4.027522E-3
1.800500E-7	4.121743E-3
1.801000E-7	4.114890E-3
1.801500E-7	4.024095E-3
1.802000E-7	3.912743E-3
1.802500E-7	3.760276E-3
1.803000E-7	3.546138E-3
1.803500E-7	3.328573E-3
1.804000E-7	3.150409E-3
1.804500E-7	2.967107E-3
1.805000E-7	2.775238E-3
1.805500E-7	2.636476E-3
1.806000E-7	2.564526E-3
1.806500E-7	2.526837E-3
1.807000E-7	2.499428E-3
1.807500E-7	2.480583E-3
1.808000E-7	2.490862E-3
1.808500E-7	2.525124E-3
1.809000E-7	2.542255E-3
1.809500E-7	2.531977E-3
1.810000E-7	2.526837E-3
1.810500E-7	2.513132E-3
1.811000E-7	2.463452E-3
1.811500E-7	2.394928E-3
1.812000E-7	2.328117E-3
1.812500E-7	2.247600E-3
1.813000E-7	2.211625E-3
1.813500E-7	2.257879E-3
1.814000E-7	2.353813E-3
1.814500E-7	2.465165E-3
1.815000E-7	2.631337E-3
1.815500E-7	2.850615E-3
1.816000E-7	3.064754E-3
1.816500E-7	3.237778E-3
1.817000E-7	3.402236E-3
1.817500E-7	3.587252E-3
1.818000E-7	3.753424E-3
1.818500E-7	3.837366E-3
1.819000E-7	3.818522E-3
1.819500E-7	3.736293E-3
1.820000E-7	3.585539E-3
1.820500E-7	3.326860E-3
1.821000E-7	2.977385E-3
1.821500E-7	2.645042E-3
1.822000E-7	2.369231E-3
1.822500E-7	2.103699E-3
1.823000E-7	1.870716E-3
1.823500E-7	1.737094E-3
1.824000E-7	1.702831E-3
1.824500E-7	1.709684E-3
1.825000E-7	1.750798E-3
1.825500E-7	1.855298E-3
1.826000E-7	1.978642E-3
1.826500E-7	2.079716E-3
1.827000E-7	2.161945E-3
1.827500E-7	2.263018E-3
1.828000E-7	2.382936E-3
1.828500E-7	2.494288E-3
1.829000E-7	2.567952E-3
1.829500E-7	2.633050E-3
1.830000E-7	2.722132E-3
1.830500E-7	2.788943E-3
1.831000E-7	2.800935E-3
1.831500E-7	2.788943E-3
1.832000E-7	2.821492E-3
1.832500E-7	2.857467E-3
1.833000E-7	2.860894E-3
1.833500E-7	2.850615E-3
1.834000E-7	2.831771E-3
1.834500E-7	2.795796E-3
1.835000E-7	2.773525E-3
1.835500E-7	2.764960E-3
1.836000E-7	2.703288E-3
1.836500E-7	2.651894E-3
1.837000E-7	2.693009E-3
1.837500E-7	2.768386E-3
1.838000E-7	2.811214E-3
1.838500E-7	2.871172E-3
1.839000E-7	2.967107E-3
1.839500E-7	3.037344E-3
1.840000E-7	3.073319E-3
1.840500E-7	3.119573E-3
1.841000E-7	3.157262E-3
1.841500E-7	3.206942E-3
1.842000E-7	3.323433E-3
1.842500E-7	3.489605E-3
1.843000E-7	3.678047E-3
1.843500E-7	3.863063E-3
1.844000E-7	4.018956E-3
1.844500E-7	4.121743E-3
1.845000E-7	4.169710E-3
1.845500E-7	4.154292E-3
1.846000E-7	4.075489E-3
1.846500E-7	3.967563E-3
1.847000E-7	3.791112E-3
1.847500E-7	3.505023E-3
1.848000E-7	3.136704E-3
1.848500E-7	2.725558E-3
1.849000E-7	2.292141E-3
1.849500E-7	1.887847E-3
1.850000E-7	1.577774E-3
1.850500E-7	1.344791E-3
1.851000E-7	1.194038E-3
1.851500E-7	1.154636E-3
1.852000E-7	1.209456E-3
1.852500E-7	1.327660E-3
1.853000E-7	1.498971E-3
1.853500E-7	1.702831E-3
1.854000E-7	1.886134E-3
1.854500E-7	2.076289E-3
1.855000E-7	2.287002E-3
1.855500E-7	2.449747E-3
1.856000E-7	2.526837E-3
1.856500E-7	2.545681E-3
1.857000E-7	2.531977E-3
1.857500E-7	2.492575E-3
1.858000E-7	2.473731E-3
1.858500E-7	2.518272E-3
1.859000E-7	2.591935E-3
1.859500E-7	2.653607E-3
1.860000E-7	2.740976E-3
1.860500E-7	2.890017E-3
1.861000E-7	3.030492E-3
1.861500E-7	3.081885E-3
1.862000E-7	3.051049E-3
1.862500E-7	2.997943E-3
1.863000E-7	2.907148E-3
1.863500E-7	2.771812E-3
1.864000E-7	2.634763E-3
1.864500E-7	2.468592E-3
1.865000E-7	2.261305E-3
1.865500E-7	2.062584E-3
1.866000E-7	1.903265E-3
1.866500E-7	1.755938E-3
1.867000E-7	1.627455E-3
1.867500E-7	1.562356E-3
1.868000E-7	1.550365E-3
1.868500E-7	1.558930E-3
1.869000E-7	1.594905E-3
1.869500E-7	1.654864E-3
1.870000E-7	1.701118E-3
1.870500E-7	1.701118E-3
1.871000E-7	1.673708E-3
1.871500E-7	1.658290E-3
1.872000E-7	1.666856E-3
1.872500E-7	1.680561E-3
1.873000E-7	1.721676E-3
1.873500E-7	1.836454E-3
1.874000E-7	2.012904E-3
1.874500E-7	2.189355E-3
1.875000E-7	2.364092E-3
1.875500E-7	2.574804E-3
1.876000E-7	2.806074E-3
1.876500E-7	3.016787E-3
1.877000E-7	3.210368E-3
1.877500E-7	3.383392E-3
1.878000E-7	3.487892E-3
1.878500E-7	3.510162E-3
1.879000E-7	3.469048E-3
1.879500E-7	3.352556E-3
1.880000E-7	3.143557E-3
1.880500E-7	2.883164E-3
1.881000E-7	2.639903E-3
1.881500E-7	2.420624E-3
1.882000E-7	2.218477E-3
1.882500E-7	2.072863E-3
1.883000E-7	1.976929E-3
1.883500E-7	1.920396E-3
1.884000E-7	1.970077E-3
1.884500E-7	2.155092E-3
1.885000E-7	2.370944E-3
1.885500E-7	2.537116E-3
1.886000E-7	2.696435E-3
1.886500E-7	2.895156E-3
1.887000E-7	3.054475E-3
1.887500E-7	3.102442E-3
1.888000E-7	3.054475E-3
1.888500E-7	2.936271E-3
1.889000E-7	2.737550E-3
1.889500E-7	2.422338E-3
1.890000E-7	2.035175E-3
1.890500E-7	1.663430E-3
1.891000E-7	1.358496E-3
1.891500E-7	1.111808E-3
1.892000E-7	9.130876E-4
1.892500E-7	8.188666E-4
1.893000E-7	8.805385E-4
1.893500E-7	1.077546E-3
1.894000E-7	1.332800E-3
1.894500E-7	1.644586E-3
1.895000E-7	2.033462E-3
1.895500E-7	2.413772E-3
1.896000E-7	2.670739E-3
1.896500E-7	2.807787E-3
1.897000E-7	2.867746E-3
1.897500E-7	2.795796E-3
1.898000E-7	2.602214E-3
1.898500E-7	2.388075E-3
1.899000E-7	2.160232E-3
1.899500E-7	1.889560E-3
1.900000E-7	1.649725E-3
1.900500E-7	1.490406E-3
1.901000E-7	1.389332E-3
1.901500E-7	1.341365E-3
1.902000E-7	1.411603E-3
1.902500E-7	1.584627E-3
1.903000E-7	1.798766E-3
1.903500E-7	2.023183E-3
1.904000E-7	2.252740E-3
1.904500E-7	2.478870E-3
1.905000E-7	2.694722E-3
1.905500E-7	2.857467E-3
1.906000E-7	2.968820E-3
1.906500E-7	3.063041E-3
1.907000E-7	3.150409E-3
1.907500E-7	3.186385E-3
1.908000E-7	3.177819E-3
1.908500E-7	3.184672E-3
1.909000E-7	3.206942E-3
1.909500E-7	3.186385E-3
1.910000E-7	3.145270E-3
1.910500E-7	3.131565E-3
1.911000E-7	3.081885E-3
1.911500E-7	2.979098E-3
1.912000E-7	2.895156E-3
1.912500E-7	2.843763E-3
1.913000E-7	2.728984E-3
1.913500E-7	2.549108E-3
1.914000E-7	2.410346E-3
1.914500E-7	2.324690E-3
1.915000E-7	2.220191E-3
1.915500E-7	2.151666E-3
1.916000E-7	2.189355E-3
1.916500E-7	2.302420E-3
1.917000E-7	2.420624E-3
1.917500E-7	2.576517E-3
1.918000E-7	2.788943E-3
1.918500E-7	3.011647E-3
1.919000E-7	3.201803E-3
1.919500E-7	3.342278E-3
1.920000E-7	3.381679E-3
1.920500E-7	3.320007E-3
1.921000E-7	3.203516E-3
1.921500E-7	3.039057E-3
1.922000E-7	2.812927E-3
1.922500E-7	2.525124E-3
1.923000E-7	2.211625E-3
1.923500E-7	1.935814E-3
1.924000E-7	1.742233E-3
1.924500E-7	1.589766E-3
1.925000E-7	1.454430E-3
1.925500E-7	1.408176E-3
1.926000E-7	1.492119E-3
1.926500E-7	1.666856E-3
1.927000E-7	1.846733E-3
1.927500E-7	2.035175E-3
1.928000E-7	2.249313E-3
1.928500E-7	2.451460E-3
1.929000E-7	2.612493E-3
1.929500E-7	2.752968E-3
1.930000E-7	2.862607E-3
1.930500E-7	2.943123E-3
1.931000E-7	3.044196E-3
1.931500E-7	3.123000E-3
1.932000E-7	3.100729E-3
1.932500E-7	3.009934E-3
1.933000E-7	2.929418E-3
1.933500E-7	2.843763E-3
1.934000E-7	2.735837E-3
1.934500E-7	2.638189E-3
1.935000E-7	2.550821E-3
1.935500E-7	2.418911E-3
1.936000E-7	2.283576E-3
1.936500E-7	2.175650E-3
1.937000E-7	2.045453E-3
1.937500E-7	1.908405E-3
1.938000E-7	1.838167E-3
1.938500E-7	1.779921E-3
1.939000E-7	1.671995E-3
1.939500E-7	1.569209E-3
1.940000E-7	1.545225E-3
1.940500E-7	1.570922E-3
1.941000E-7	1.625741E-3
1.941500E-7	1.728528E-3
1.942000E-7	1.860437E-3
1.942500E-7	1.994060E-3
1.943000E-7	2.083142E-3
1.943500E-7	2.141388E-3
1.944000E-7	2.201346E-3
1.944500E-7	2.297281E-3
1.945000E-7	2.376084E-3
1.945500E-7	2.396641E-3
1.946000E-7	2.420624E-3
1.946500E-7	2.453174E-3
1.947000E-7	2.415485E-3
1.947500E-7	2.334969E-3
1.948000E-7	2.305846E-3
1.948500E-7	2.326403E-3
1.949000E-7	2.334969E-3
1.949500E-7	2.381223E-3
1.950000E-7	2.489149E-3
1.950500E-7	2.564526E-3
1.951000E-7	2.562813E-3
1.951500E-7	2.537116E-3
1.952000E-7	2.487436E-3
1.952500E-7	2.393215E-3
1.953000E-7	2.321264E-3
1.953500E-7	2.326403E-3
1.954000E-7	2.334969E-3
1.954500E-7	2.333256E-3
1.955000E-7	2.369231E-3
1.955500E-7	2.454887E-3
1.956000E-7	2.528550E-3
1.956500E-7	2.603927E-3
1.957000E-7	2.699861E-3
1.957500E-7	2.828345E-3
1.958000E-7	2.955115E-3
1.958500E-7	3.061328E-3
1.959000E-7	3.114434E-3
1.959500E-7	3.109295E-3
1.960000E-7	3.009934E-3
1.960500E-7	2.818066E-3
1.961000E-7	2.627911E-3
1.961500E-7	2.499428E-3
1.962000E-7	2.382936E-3
1.962500E-7	2.237322E-3
1.963000E-7	2.105412E-3
1.963500E-7	2.004339E-3
1.964000E-7	1.904978E-3
1.964500E-7	1.774782E-3
1.965000E-7	1.642872E-3
1.965500E-7	1.579487E-3
1.966000E-7	1.586340E-3
1.966500E-7	1.608610E-3
1.967000E-7	1.632594E-3
1.967500E-7	1.716536E-3
1.968000E-7	1.843306E-3
1.968500E-7	1.978642E-3
1.969000E-7	2.156806E-3
1.969500E-7	2.367518E-3
1.970000E-7	2.533690E-3
1.970500E-7	2.627911E-3
1.971000E-7	2.674165E-3
1.971500E-7	2.667312E-3
1.972000E-7	2.605640E-3
1.972500E-7	2.518272E-3
1.973000E-7	2.406920E-3
1.973500E-7	2.237322E-3
1.974000E-7	2.040314E-3
1.974500E-7	1.886134E-3
1.975000E-7	1.781634E-3
1.975500E-7	1.702831E-3
1.976000E-7	1.649725E-3
1.976500E-7	1.649725E-3
1.977000E-7	1.695979E-3
1.977500E-7	1.773069E-3
1.978000E-7	1.877569E-3
1.978500E-7	1.990634E-3
1.979000E-7	2.112265E-3
1.979500E-7	2.228756E-3
1.980000E-7	2.343534E-3
1.980500E-7	2.468592E-3
1.981000E-7	2.614206E-3
1.981500E-7	2.788943E-3
1.982000E-7	2.944836E-3
1.982500E-7	3.047623E-3
1.983000E-7	3.129852E-3
1.983500E-7	3.179532E-3
1.984000E-7	3.145270E-3
1.984500E-7	3.047623E-3
1.985000E-7	2.965393E-3
1.985500E-7	2.869459E-3
1.986000E-7	2.696435E-3
1.986500E-7	2.487436E-3
1.987000E-7	2.307559E-3
1.987500E-7	2.149953E-3
1.988000E-7	2.002626E-3
1.988500E-7	1.908405E-3
1.989000E-7	1.855298E-3
1.989500E-7	1.839880E-3
1.990000E-7	1.887847E-3
1.990500E-7	2.004339E-3
1.991000E-7	2.141388E-3
1.991500E-7	2.269871E-3
1.992000E-7	2.400067E-3
1.992500E-7	2.538829E-3
1.993000E-7	2.651894E-3
1.993500E-7	2.681017E-3
1.994000E-7	2.609067E-3
1.994500E-7	2.470305E-3
1.995000E-7	2.293854E-3
1.995500E-7	2.101986E-3
1.996000E-7	1.970077E-3
1.996500E-7	1.911831E-3
1.997000E-7	1.872429E-3
1.997500E-7	1.863864E-3
1.998000E-7	1.920396E-3
1.998500E-7	2.028322E-3
1.999000E-7	2.139674E-3
1.999500E-7	2.240748E-3
2.000000E-7	2.319551E-3
