Study Name	fullMap
Sample Name	CuCrAl
Run Name	spot00
Operator	Colin
Date	1/31/2024
Time	12:24 PM
Sign	POS
Grating Spacing	06.40um
Channel	2
Number Traces	2000
Files in Batch	1
Batch Number	2
dt	50.000001E-12
time stamp (ms)	12:57:50 PM
	
Time	Amplitude
0.000000E+0	-6.441294E-4
5.000000E-11	-7.297849E-4
1.000000E-10	-8.308584E-4
1.500000E-10	-9.165139E-4
2.000000E-10	-9.696203E-4
2.500000E-10	-9.901776E-4
3.000000E-10	-9.713334E-4
3.500000E-10	-9.233663E-4
4.000000E-10	-8.685468E-4
4.500000E-10	-7.931699E-4
5.000000E-10	-6.938096E-4
5.500000E-10	-6.150065E-4
6.000000E-10	-5.721787E-4
6.500000E-10	-5.344903E-4
7.000000E-10	-5.036543E-4
7.500000E-10	-4.865232E-4
8.000000E-10	-4.745315E-4
8.500000E-10	-4.745315E-4
9.000000E-10	-5.122199E-4
9.500000E-10	-5.704656E-4
1.000000E-9	-6.047278E-4
1.050000E-9	-6.115803E-4
1.100000E-9	-6.218589E-4
1.150000E-9	-6.509818E-4
1.200000E-9	-6.818178E-4
1.250000E-9	-6.886702E-4
1.300000E-9	-6.783916E-4
1.350000E-9	-6.749653E-4
1.400000E-9	-6.561211E-4
1.450000E-9	-6.098672E-4
1.500000E-9	-5.481952E-4
1.550000E-9	-4.711053E-4
1.600000E-9	-3.631793E-4
1.650000E-9	-2.364092E-4
1.700000E-9	-8.908172E-5
1.750000E-9	1.027866E-4
1.800000E-9	3.186385E-4
1.850000E-9	5.070806E-4
1.900000E-9	6.835309E-4
1.950000E-9	8.719730E-4
2.000000E-9	1.034718E-3
2.050000E-9	1.134079E-3
2.100000E-9	1.194038E-3
2.150000E-9	1.242005E-3
2.200000E-9	1.274554E-3
2.250000E-9	1.274554E-3
2.300000E-9	1.235152E-3
2.350000E-9	1.151210E-3
2.400000E-9	1.029579E-3
2.450000E-9	8.856779E-4
2.500000E-9	7.177931E-4
2.550000E-9	5.242117E-4
2.600000E-9	3.289171E-4
2.650000E-9	1.661717E-4
2.700000E-9	2.227043E-5
2.750000E-9	-1.267701E-4
2.800000E-9	-2.740976E-4
2.850000E-9	-4.025809E-4
2.900000E-9	-4.985150E-4
2.950000E-9	-5.670394E-4
3.000000E-9	-6.321376E-4
3.050000E-9	-6.955227E-4
3.100000E-9	-7.417766E-4
3.150000E-9	-7.794651E-4
3.200000E-9	-8.171535E-4
3.250000E-9	-8.359977E-4
3.300000E-9	-8.137273E-4
3.350000E-9	-7.777519E-4
3.400000E-9	-7.280718E-4
3.450000E-9	-6.372769E-4
3.500000E-9	-5.344903E-4
3.550000E-9	-4.522610E-4
3.600000E-9	-3.820235E-4
3.650000E-9	-3.289171E-4
3.700000E-9	-3.220647E-4
3.750000E-9	-3.203516E-4
3.800000E-9	-2.963680E-4
3.850000E-9	-2.895156E-4
3.900000E-9	-3.220647E-4
3.950000E-9	-3.426220E-4
4.000000E-9	-3.426220E-4
4.050000E-9	-3.443351E-4
4.100000E-9	-3.409089E-4
4.150000E-9	-2.946549E-4
4.200000E-9	-2.141388E-4
4.250000E-9	-1.199177E-4
4.300000E-9	-2.569665E-5
4.350000E-9	5.824574E-5
4.400000E-9	1.267701E-4
4.450000E-9	1.815897E-4
4.500000E-9	2.107125E-4
4.550000E-9	2.089994E-4
4.600000E-9	1.970077E-4
4.650000E-9	1.781634E-4
4.700000E-9	1.267701E-4
4.750000E-9	4.111464E-5
4.800000E-9	-3.426220E-5
4.850000E-9	-7.708995E-5
4.900000E-9	-9.764727E-5
4.950000E-9	-1.164915E-4
5.000000E-9	-1.301964E-4
5.050000E-9	-1.370488E-4
5.100000E-9	-1.284833E-4
5.150000E-9	-1.130653E-4
5.200000E-9	-9.422105E-5
5.250000E-9	-6.509818E-5
5.300000E-9	-8.565550E-6
5.350000E-9	4.111464E-5
5.400000E-9	6.167196E-5
5.450000E-9	9.764727E-5
5.500000E-9	1.661717E-4
5.550000E-9	2.107125E-4
5.600000E-9	2.004339E-4
5.650000E-9	1.935814E-4
5.700000E-9	2.089994E-4
5.750000E-9	2.089994E-4
5.800000E-9	2.072863E-4
5.850000E-9	2.346961E-4
5.900000E-9	2.638189E-4
5.950000E-9	2.672452E-4
6.000000E-9	2.792369E-4
6.050000E-9	3.100729E-4
6.100000E-9	3.220647E-4
6.150000E-9	2.912287E-4
6.200000E-9	2.484010E-4
6.250000E-9	2.124256E-4
6.300000E-9	1.713110E-4
6.350000E-9	1.113522E-4
6.400000E-9	3.597531E-5
6.450000E-9	-3.940153E-5
6.500000E-9	-1.182046E-4
6.550000E-9	-2.021470E-4
6.600000E-9	-2.638189E-4
6.650000E-9	-2.809500E-4
6.700000E-9	-2.603927E-4
6.750000E-9	-2.346961E-4
6.800000E-9	-2.107125E-4
6.850000E-9	-1.644586E-4
6.900000E-9	-1.096390E-4
6.950000E-9	-1.044997E-4
7.000000E-9	-1.473275E-4
7.050000E-9	-1.884421E-4
7.100000E-9	-2.244174E-4
7.150000E-9	-2.706714E-4
7.200000E-9	-3.049336E-4
7.250000E-9	-3.152122E-4
7.300000E-9	-3.015074E-4
7.350000E-9	-2.415485E-4
7.400000E-9	-1.250570E-4
7.450000E-9	1.713110E-5
7.500000E-9	1.576061E-4
7.550000E-9	2.843763E-4
7.600000E-9	3.717449E-4
7.650000E-9	4.231382E-4
7.700000E-9	4.317037E-4
7.750000E-9	3.631793E-4
7.800000E-9	2.329830E-4
7.850000E-9	1.130653E-4
7.900000E-9	3.426220E-6
7.950000E-9	-1.199177E-4
8.000000E-9	-2.004339E-4
8.050000E-9	-1.987208E-4
8.100000E-9	-1.610323E-4
8.150000E-9	-1.096390E-4
8.200000E-9	-3.254909E-5
8.250000E-9	2.740976E-5
8.300000E-9	3.597531E-5
8.350000E-9	1.027866E-5
8.400000E-9	-5.824574E-5
8.450000E-9	-1.970077E-4
8.500000E-9	-3.580400E-4
8.550000E-9	-5.139330E-4
8.600000E-9	-6.989489E-4
8.650000E-9	-9.045221E-4
8.700000E-9	-1.050136E-3
8.750000E-9	-1.122087E-3
8.800000E-9	-1.154636E-3
8.850000E-9	-1.135792E-3
8.900000E-9	-1.058702E-3
8.950000E-9	-9.473498E-4
9.000000E-9	-8.034486E-4
9.050000E-9	-6.252852E-4
9.100000E-9	-4.419824E-4
9.150000E-9	-2.552534E-4
9.200000E-9	-6.681129E-5
9.250000E-9	7.023751E-5
9.300000E-9	1.387619E-4
9.350000E-9	1.764503E-4
9.400000E-9	1.987208E-4
9.450000E-9	1.833028E-4
9.500000E-9	1.576061E-4
9.550000E-9	1.490406E-4
9.600000E-9	1.507537E-4
9.650000E-9	1.661717E-4
9.700000E-9	2.004339E-4
9.750000E-9	2.261305E-4
9.800000E-9	2.432616E-4
9.850000E-9	2.843763E-4
9.900000E-9	3.426220E-4
9.950000E-9	3.820235E-4
1.000000E-8	3.940153E-4
1.005000E-8	3.991546E-4
1.010000E-8	4.111464E-4
1.015000E-8	3.974415E-4
1.020000E-8	3.340565E-4
1.025000E-8	2.364092E-4
1.030000E-8	1.404750E-4
1.035000E-8	4.625397E-5
1.040000E-8	-3.597531E-5
1.045000E-8	-6.167196E-5
1.050000E-8	-4.796708E-5
1.055000E-8	-4.111464E-5
1.060000E-8	-2.740976E-5
1.065000E-8	1.713110E-5
1.070000E-8	5.824574E-5
1.075000E-8	5.653263E-5
1.080000E-8	3.083598E-5
1.085000E-8	-3.426220E-6
1.090000E-8	-5.310641E-5
1.095000E-8	-1.147784E-4
1.100000E-8	-1.901552E-4
1.105000E-8	-2.809500E-4
1.110000E-8	-3.785973E-4
1.115000E-8	-4.728184E-4
1.120000E-8	-5.601870E-4
1.125000E-8	-6.338507E-4
1.130000E-8	-6.852440E-4
1.135000E-8	-7.006620E-4
1.140000E-8	-6.715391E-4
1.145000E-8	-5.995885E-4
1.150000E-8	-4.933757E-4
1.155000E-8	-3.700318E-4
1.160000E-8	-2.415485E-4
1.165000E-8	-9.936038E-5
1.170000E-8	5.481952E-5
1.175000E-8	1.952945E-4
1.180000E-8	2.929418E-4
1.185000E-8	3.289171E-4
1.190000E-8	2.878025E-4
1.195000E-8	2.089994E-4
1.200000E-8	1.473275E-4
1.205000E-8	1.284833E-4
1.210000E-8	1.199177E-4
1.215000E-8	1.267701E-4
1.220000E-8	1.610323E-4
1.225000E-8	2.312699E-4
1.230000E-8	3.100729E-4
1.235000E-8	3.648924E-4
1.240000E-8	4.008677E-4
1.245000E-8	4.436955E-4
1.250000E-8	4.556873E-4
1.255000E-8	3.905891E-4
1.260000E-8	2.706714E-4
1.265000E-8	1.233439E-4
1.270000E-8	-6.509818E-5
1.275000E-8	-2.758107E-4
1.280000E-8	-4.556873E-4
1.285000E-8	-5.944492E-4
1.290000E-8	-6.852440E-4
1.295000E-8	-7.143669E-4
1.300000E-8	-7.006620E-4
1.305000E-8	-6.715391E-4
1.310000E-8	-6.030147E-4
1.315000E-8	-4.728184E-4
1.320000E-8	-3.186385E-4
1.325000E-8	-1.850159E-4
1.330000E-8	-8.222928E-5
1.335000E-8	-5.139330E-6
1.340000E-8	3.254909E-5
1.345000E-8	2.740976E-5
1.350000E-8	-1.713110E-5
1.355000E-8	-1.062128E-4
1.360000E-8	-2.346961E-4
1.365000E-8	-3.837366E-4
1.370000E-8	-5.396297E-4
1.375000E-8	-7.212193E-4
1.380000E-8	-9.216532E-4
1.385000E-8	-1.094677E-3
1.390000E-8	-1.216308E-3
1.395000E-8	-1.307103E-3
1.400000E-8	-1.355070E-3
1.405000E-8	-1.327660E-3
1.410000E-8	-1.245431E-3
1.415000E-8	-1.140931E-3
1.420000E-8	-1.009022E-3
1.425000E-8	-8.479895E-4
1.430000E-8	-6.663998E-4
1.435000E-8	-4.745315E-4
1.440000E-8	-2.860894E-4
1.445000E-8	-1.216308E-4
1.450000E-8	1.199177E-5
1.455000E-8	1.473275E-4
1.460000E-8	2.723845E-4
1.465000E-8	3.666055E-4
1.470000E-8	4.471217E-4
1.475000E-8	5.224986E-4
1.480000E-8	5.619001E-4
1.485000E-8	5.619001E-4
1.490000E-8	5.636132E-4
1.495000E-8	5.653263E-4
1.500000E-8	5.242117E-4
1.505000E-8	4.368431E-4
1.510000E-8	3.426220E-4
1.515000E-8	2.518272E-4
1.520000E-8	1.439012E-4
1.525000E-8	3.254909E-5
1.530000E-8	-5.481952E-5
1.535000E-8	-1.199177E-4
1.540000E-8	-1.764503E-4
1.545000E-8	-2.209912E-4
1.550000E-8	-2.398354E-4
1.555000E-8	-2.055732E-4
1.560000E-8	-1.199177E-4
1.565000E-8	-1.884421E-5
1.570000E-8	8.394239E-5
1.575000E-8	1.713110E-4
1.580000E-8	2.021470E-4
1.585000E-8	1.610323E-4
1.590000E-8	8.908172E-5
1.595000E-8	6.852440E-6
1.600000E-8	-1.147784E-4
1.605000E-8	-2.723845E-4
1.610000E-8	-4.351299E-4
1.615000E-8	-5.824574E-4
1.620000E-8	-6.972358E-4
1.625000E-8	-7.657602E-4
1.630000E-8	-7.794651E-4
1.635000E-8	-7.229324E-4
1.640000E-8	-5.875967E-4
1.645000E-8	-3.871629E-4
1.650000E-8	-1.661717E-4
1.655000E-8	5.824574E-5
1.660000E-8	2.723845E-4
1.665000E-8	4.745315E-4
1.670000E-8	6.321376E-4
1.675000E-8	7.246455E-4
1.680000E-8	7.760388E-4
1.685000E-8	8.171535E-4
1.690000E-8	8.411370E-4
1.695000E-8	8.771123E-4
1.700000E-8	9.970300E-4
1.705000E-8	1.245431E-3
1.710000E-8	1.605184E-3
1.715000E-8	2.091707E-3
1.720000E-8	2.756394E-3
1.725000E-8	3.594105E-3
1.730000E-8	4.543168E-3
1.735000E-8	5.574460E-3
1.740000E-8	6.672563E-3
1.745000E-8	7.825487E-3
1.750000E-8	9.000680E-3
1.755000E-8	1.013476E-2
1.760000E-8	1.118661E-2
1.765000E-8	1.218021E-2
1.770000E-8	1.312928E-2
1.775000E-8	1.401838E-2
1.780000E-8	1.485609E-2
1.785000E-8	1.568010E-2
1.790000E-8	1.649040E-2
1.795000E-8	1.724417E-2
1.800000E-8	1.795339E-2
1.805000E-8	1.862322E-2
1.810000E-8	1.923137E-2
1.815000E-8	1.975901E-2
1.820000E-8	2.019928E-2
1.825000E-8	2.055389E-2
1.830000E-8	2.080401E-2
1.835000E-8	2.091022E-2
1.840000E-8	2.085198E-2
1.845000E-8	2.065839E-2
1.850000E-8	2.033633E-2
1.855000E-8	1.984467E-2
1.860000E-8	1.919540E-2
1.865000E-8	1.847075E-2
1.870000E-8	1.767758E-2
1.875000E-8	1.679190E-2
1.880000E-8	1.586340E-2
1.885000E-8	1.495545E-2
1.890000E-8	1.405949E-2
1.895000E-8	1.319437E-2
1.900000E-8	1.246459E-2
1.905000E-8	1.192667E-2
1.910000E-8	1.157206E-2
1.915000E-8	1.145043E-2
1.920000E-8	1.163373E-2
1.925000E-8	1.208942E-2
1.930000E-8	1.275068E-2
1.935000E-8	1.360381E-2
1.940000E-8	1.464366E-2
1.945000E-8	1.581372E-2
1.950000E-8	1.702831E-2
1.955000E-8	1.820008E-2
1.960000E-8	1.928448E-2
1.965000E-8	2.027123E-2
1.970000E-8	2.113635E-2
1.975000E-8	2.182331E-2
1.980000E-8	2.226015E-2
1.985000E-8	2.240748E-2
1.990000E-8	2.229441E-2
1.995000E-8	2.197749E-2
2.000000E-8	2.146356E-2
2.005000E-8	2.077146E-2
2.010000E-8	1.998172E-2
2.015000E-8	1.915771E-2
2.020000E-8	1.829773E-2
2.025000E-8	1.744631E-2
2.030000E-8	1.667884E-2
2.035000E-8	1.599702E-2
2.040000E-8	1.536660E-2
2.045000E-8	1.482868E-2
2.050000E-8	1.443980E-2
2.055000E-8	1.417085E-2
2.060000E-8	1.398926E-2
2.065000E-8	1.393958E-2
2.070000E-8	1.403208E-2
2.075000E-8	1.422053E-2
2.080000E-8	1.446207E-2
2.085000E-8	1.476187E-2
2.090000E-8	1.510449E-2
2.095000E-8	1.547110E-2
2.100000E-8	1.584113E-2
2.105000E-8	1.620431E-2
2.110000E-8	1.657091E-2
2.115000E-8	1.693581E-2
2.120000E-8	1.726644E-2
2.125000E-8	1.757308E-2
2.130000E-8	1.786774E-2
2.135000E-8	1.815383E-2
2.140000E-8	1.841079E-2
2.145000E-8	1.865063E-2
2.150000E-8	1.887162E-2
2.155000E-8	1.906006E-2
2.160000E-8	1.923309E-2
2.165000E-8	1.937527E-2
2.170000E-8	1.948149E-2
2.175000E-8	1.955172E-2
2.180000E-8	1.955686E-2
2.185000E-8	1.948149E-2
2.190000E-8	1.934615E-2
2.195000E-8	1.914058E-2
2.200000E-8	1.883051E-2
2.205000E-8	1.841593E-2
2.210000E-8	1.791570E-2
2.215000E-8	1.731783E-2
2.220000E-8	1.660860E-2
2.225000E-8	1.584627E-2
2.230000E-8	1.508051E-2
2.235000E-8	1.433530E-2
2.240000E-8	1.363464E-2
2.245000E-8	1.301278E-2
2.250000E-8	1.251427E-2
2.255000E-8	1.219392E-2
2.260000E-8	1.209113E-2
2.265000E-8	1.223161E-2
2.270000E-8	1.262219E-2
2.275000E-8	1.325262E-2
2.280000E-8	1.409547E-2
2.285000E-8	1.509250E-2
2.290000E-8	1.620088E-2
2.295000E-8	1.736408E-2
2.300000E-8	1.849987E-2
2.305000E-8	1.951404E-2
2.310000E-8	2.038772E-2
2.315000E-8	2.110380E-2
2.320000E-8	2.161260E-2
2.325000E-8	2.188327E-2
2.330000E-8	2.193809E-2
2.335000E-8	2.177705E-2
2.340000E-8	2.139160E-2
2.345000E-8	2.080572E-2
2.350000E-8	2.007422E-2
2.355000E-8	1.924508E-2
2.360000E-8	1.831657E-2
2.365000E-8	1.730926E-2
2.370000E-8	1.627112E-2
2.375000E-8	1.526724E-2
2.380000E-8	1.434558E-2
2.385000E-8	1.352672E-2
2.390000E-8	1.279693E-2
2.395000E-8	1.219220E-2
2.400000E-8	1.177592E-2
2.405000E-8	1.154979E-2
2.410000E-8	1.149839E-2
2.415000E-8	1.164743E-2
2.420000E-8	1.201404E-2
2.425000E-8	1.255881E-2
2.430000E-8	1.324234E-2
2.435000E-8	1.403551E-2
2.440000E-8	1.488693E-2
2.445000E-8	1.577603E-2
2.450000E-8	1.665486E-2
2.455000E-8	1.747544E-2
2.460000E-8	1.821379E-2
2.465000E-8	1.887162E-2
2.470000E-8	1.941810E-2
2.475000E-8	1.979841E-2
2.480000E-8	2.001940E-2
2.485000E-8	2.010335E-2
2.490000E-8	2.006394E-2
2.495000E-8	1.989949E-2
2.500000E-8	1.960826E-2
2.505000E-8	1.920910E-2
2.510000E-8	1.877397E-2
2.515000E-8	1.833542E-2
2.520000E-8	1.786602E-2
2.525000E-8	1.736751E-2
2.530000E-8	1.691011E-2
2.535000E-8	1.652466E-2
2.540000E-8	1.619403E-2
2.545000E-8	1.591822E-2
2.550000E-8	1.570751E-2
2.555000E-8	1.552249E-2
2.560000E-8	1.530835E-2
2.565000E-8	1.507365E-2
2.570000E-8	1.483382E-2
2.575000E-8	1.456829E-2
2.580000E-8	1.424794E-2
2.585000E-8	1.389332E-2
2.590000E-8	1.355927E-2
2.595000E-8	1.329545E-2
2.600000E-8	1.312928E-2
2.605000E-8	1.308816E-2
2.610000E-8	1.321322E-2
2.615000E-8	1.350787E-2
2.620000E-8	1.396013E-2
2.625000E-8	1.458028E-2
2.630000E-8	1.537345E-2
2.635000E-8	1.627968E-2
2.640000E-8	1.724588E-2
2.645000E-8	1.823263E-2
2.650000E-8	1.916970E-2
2.655000E-8	1.998857E-2
2.660000E-8	2.069094E-2
2.665000E-8	2.126483E-2
2.670000E-8	2.164686E-2
2.675000E-8	2.182845E-2
2.680000E-8	2.184729E-2
2.685000E-8	2.168455E-2
2.690000E-8	2.131965E-2
2.695000E-8	2.083656E-2
2.700000E-8	2.025239E-2
2.705000E-8	1.952774E-2
2.710000E-8	1.869517E-2
2.715000E-8	1.783519E-2
2.720000E-8	1.693581E-2
2.725000E-8	1.599360E-2
2.730000E-8	1.504796E-2
2.735000E-8	1.412802E-2
2.740000E-8	1.326975E-2
2.745000E-8	1.258622E-2
2.750000E-8	1.213738E-2
2.755000E-8	1.188727E-2
2.760000E-8	1.186500E-2
2.765000E-8	1.212368E-2
2.770000E-8	1.265303E-2
2.775000E-8	1.339481E-2
2.780000E-8	1.432503E-2
2.785000E-8	1.538887E-2
2.790000E-8	1.651095E-2
2.795000E-8	1.764332E-2
2.800000E-8	1.874314E-2
2.805000E-8	1.970077E-2
2.810000E-8	2.044768E-2
2.815000E-8	2.099588E-2
2.820000E-8	2.134878E-2
2.825000E-8	2.147041E-2
2.830000E-8	2.135220E-2
2.835000E-8	2.104556E-2
2.840000E-8	2.058644E-2
2.845000E-8	1.999028E-2
2.850000E-8	1.932731E-2
2.855000E-8	1.866433E-2
2.860000E-8	1.803220E-2
2.865000E-8	1.742747E-2
2.870000E-8	1.686728E-2
2.875000E-8	1.638247E-2
2.880000E-8	1.598846E-2
2.885000E-8	1.563556E-2
2.890000E-8	1.529122E-2
2.895000E-8	1.499143E-2
2.900000E-8	1.473103E-2
2.905000E-8	1.447407E-2
2.910000E-8	1.420853E-2
2.915000E-8	1.396356E-2
2.920000E-8	1.373914E-2
2.925000E-8	1.355755E-2
2.930000E-8	1.346162E-2
2.935000E-8	1.348732E-2
2.940000E-8	1.361922E-2
2.945000E-8	1.387448E-2
2.950000E-8	1.427706E-2
2.955000E-8	1.477900E-2
2.960000E-8	1.532377E-2
2.965000E-8	1.590623E-2
2.970000E-8	1.653494E-2
2.975000E-8	1.718249E-2
2.980000E-8	1.782148E-2
2.985000E-8	1.844848E-2
2.990000E-8	1.901552E-2
2.995000E-8	1.950547E-2
3.000000E-8	1.993032E-2
3.005000E-8	2.024896E-2
3.010000E-8	2.043740E-2
3.015000E-8	2.051963E-2
3.020000E-8	2.048366E-2
3.025000E-8	2.027466E-2
3.030000E-8	1.992690E-2
3.035000E-8	1.948663E-2
3.040000E-8	1.893500E-2
3.045000E-8	1.827032E-2
3.050000E-8	1.756623E-2
3.055000E-8	1.682788E-2
3.060000E-8	1.601244E-2
3.065000E-8	1.516788E-2
3.070000E-8	1.436100E-2
3.075000E-8	1.359695E-2
3.080000E-8	1.288773E-2
3.085000E-8	1.228129E-2
3.090000E-8	1.179305E-2
3.095000E-8	1.146413E-2
3.100000E-8	1.133394E-2
3.105000E-8	1.137848E-2
3.110000E-8	1.158748E-2
3.115000E-8	1.200719E-2
3.120000E-8	1.264104E-2
3.125000E-8	1.344106E-2
3.130000E-8	1.440383E-2
3.135000E-8	1.551392E-2
3.140000E-8	1.669426E-2
3.145000E-8	1.787973E-2
3.150000E-8	1.902237E-2
3.155000E-8	2.003825E-2
3.160000E-8	2.084855E-2
3.165000E-8	2.143957E-2
3.170000E-8	2.178905E-2
3.175000E-8	2.184044E-2
3.180000E-8	2.160746E-2
3.185000E-8	2.113635E-2
3.190000E-8	2.044425E-2
3.195000E-8	1.958427E-2
3.200000E-8	1.863178E-2
3.205000E-8	1.764846E-2
3.210000E-8	1.666171E-2
3.215000E-8	1.573149E-2
3.220000E-8	1.491262E-2
3.225000E-8	1.425308E-2
3.230000E-8	1.379054E-2
3.235000E-8	1.351301E-2
3.240000E-8	1.336568E-2
3.245000E-8	1.334341E-2
3.250000E-8	1.347361E-2
3.255000E-8	1.370831E-2
3.260000E-8	1.399611E-2
3.265000E-8	1.435244E-2
3.270000E-8	1.480641E-2
3.275000E-8	1.532548E-2
3.280000E-8	1.586169E-2
3.285000E-8	1.638590E-2
3.290000E-8	1.688784E-2
3.295000E-8	1.737436E-2
3.300000E-8	1.782662E-2
3.305000E-8	1.821721E-2
3.310000E-8	1.854956E-2
3.315000E-8	1.879967E-2
3.320000E-8	1.895385E-2
3.325000E-8	1.902237E-2
3.330000E-8	1.903437E-2
3.335000E-8	1.901209E-2
3.340000E-8	1.894528E-2
3.345000E-8	1.880310E-2
3.350000E-8	1.858896E-2
3.355000E-8	1.835426E-2
3.360000E-8	1.814355E-2
3.365000E-8	1.793455E-2
3.370000E-8	1.771184E-2
3.375000E-8	1.750113E-2
3.380000E-8	1.729042E-2
3.385000E-8	1.703174E-2
3.390000E-8	1.671310E-2
3.395000E-8	1.636363E-2
3.400000E-8	1.596961E-2
3.405000E-8	1.550536E-2
3.410000E-8	1.500684E-2
3.415000E-8	1.450833E-2
3.420000E-8	1.400467E-2
3.425000E-8	1.349074E-2
3.430000E-8	1.302820E-2
3.435000E-8	1.265988E-2
3.440000E-8	1.238236E-2
3.445000E-8	1.222475E-2
3.450000E-8	1.223161E-2
3.455000E-8	1.239092E-2
3.460000E-8	1.269243E-2
3.465000E-8	1.318067E-2
3.470000E-8	1.385906E-2
3.475000E-8	1.465223E-2
3.480000E-8	1.553277E-2
3.485000E-8	1.650753E-2
3.490000E-8	1.752683E-2
3.495000E-8	1.852728E-2
3.500000E-8	1.948149E-2
3.505000E-8	2.032434E-2
3.510000E-8	2.097189E-2
3.515000E-8	2.138647E-2
3.520000E-8	2.159033E-2
3.525000E-8	2.156977E-2
3.530000E-8	2.132479E-2
3.535000E-8	2.086054E-2
3.540000E-8	2.019757E-2
3.545000E-8	1.937356E-2
3.550000E-8	1.842279E-2
3.555000E-8	1.736066E-2
3.560000E-8	1.623857E-2
3.565000E-8	1.513190E-2
3.570000E-8	1.408519E-2
3.575000E-8	1.314641E-2
3.580000E-8	1.236180E-2
3.585000E-8	1.175022E-2
3.590000E-8	1.131338E-2
3.595000E-8	1.106155E-2
3.600000E-8	1.100159E-2
3.605000E-8	1.110095E-2
3.610000E-8	1.135792E-2
3.615000E-8	1.177592E-2
3.620000E-8	1.232069E-2
3.625000E-8	1.294426E-2
3.630000E-8	1.365520E-2
3.635000E-8	1.445351E-2
3.640000E-8	1.529807E-2
3.645000E-8	1.613407E-2
3.650000E-8	1.693923E-2
3.655000E-8	1.766902E-2
3.660000E-8	1.827203E-2
3.665000E-8	1.871230E-2
3.670000E-8	1.901552E-2
3.675000E-8	1.916456E-2
3.680000E-8	1.912002E-2
3.685000E-8	1.891616E-2
3.690000E-8	1.860951E-2
3.695000E-8	1.823263E-2
3.700000E-8	1.778208E-2
3.705000E-8	1.726130E-2
3.710000E-8	1.671481E-2
3.715000E-8	1.620602E-2
3.720000E-8	1.577260E-2
3.725000E-8	1.541114E-2
3.730000E-8	1.510792E-2
3.735000E-8	1.486294E-2
3.740000E-8	1.466765E-2
3.745000E-8	1.450490E-2
3.750000E-8	1.436100E-2
3.755000E-8	1.423252E-2
3.760000E-8	1.412288E-2
3.765000E-8	1.403380E-2
3.770000E-8	1.393786E-2
3.775000E-8	1.381795E-2
3.780000E-8	1.370145E-2
3.785000E-8	1.362094E-2
3.790000E-8	1.356954E-2
3.795000E-8	1.355070E-2
3.800000E-8	1.358496E-2
3.805000E-8	1.371173E-2
3.810000E-8	1.394985E-2
3.815000E-8	1.428734E-2
3.820000E-8	1.471048E-2
3.825000E-8	1.519871E-2
3.830000E-8	1.572121E-2
3.835000E-8	1.628311E-2
3.840000E-8	1.687585E-2
3.845000E-8	1.745145E-2
3.850000E-8	1.796538E-2
3.855000E-8	1.840565E-2
3.860000E-8	1.872943E-2
3.865000E-8	1.889046E-2
3.870000E-8	1.888704E-2
3.875000E-8	1.872258E-2
3.880000E-8	1.840223E-2
3.885000E-8	1.793797E-2
3.890000E-8	1.734353E-2
3.895000E-8	1.664629E-2
3.900000E-8	1.589937E-2
3.905000E-8	1.512334E-2
3.910000E-8	1.430961E-2
3.915000E-8	1.349759E-2
3.920000E-8	1.277295E-2
3.925000E-8	1.217336E-2
3.930000E-8	1.167313E-2
3.935000E-8	1.128426E-2
3.940000E-8	1.108553E-2
3.945000E-8	1.109753E-2
3.950000E-8	1.127055E-2
3.955000E-8	1.157891E-2
3.960000E-8	1.204830E-2
3.965000E-8	1.267187E-2
3.970000E-8	1.339995E-2
3.975000E-8	1.420682E-2
3.980000E-8	1.507879E-2
3.985000E-8	1.594220E-2
3.990000E-8	1.674051E-2
3.995000E-8	1.745145E-2
4.000000E-8	1.804247E-2
4.005000E-8	1.846561E-2
4.010000E-8	1.873971E-2
4.015000E-8	1.890588E-2
4.020000E-8	1.895556E-2
4.025000E-8	1.887505E-2
4.030000E-8	1.866091E-2
4.035000E-8	1.835769E-2
4.040000E-8	1.798937E-2
4.045000E-8	1.753197E-2
4.050000E-8	1.696322E-2
4.055000E-8	1.633793E-2
4.060000E-8	1.572292E-2
4.065000E-8	1.514218E-2
4.070000E-8	1.459741E-2
4.075000E-8	1.410061E-2
4.080000E-8	1.367747E-2
4.085000E-8	1.336568E-2
4.090000E-8	1.316011E-2
4.095000E-8	1.305561E-2
4.100000E-8	1.307617E-2
4.105000E-8	1.326632E-2
4.110000E-8	1.355070E-2
4.115000E-8	1.384536E-2
4.120000E-8	1.415371E-2
4.125000E-8	1.449634E-2
4.130000E-8	1.480641E-2
4.135000E-8	1.502911E-2
4.140000E-8	1.519015E-2
4.145000E-8	1.535461E-2
4.150000E-8	1.552592E-2
4.155000E-8	1.569037E-2
4.160000E-8	1.587368E-2
4.165000E-8	1.611180E-2
4.170000E-8	1.641159E-2
4.175000E-8	1.673537E-2
4.180000E-8	1.707285E-2
4.185000E-8	1.738807E-2
4.190000E-8	1.763818E-2
4.195000E-8	1.781463E-2
4.200000E-8	1.792256E-2
4.205000E-8	1.794825E-2
4.210000E-8	1.786945E-2
4.215000E-8	1.767930E-2
4.220000E-8	1.738635E-2
4.225000E-8	1.699063E-2
4.230000E-8	1.645613E-2
4.235000E-8	1.580173E-2
4.240000E-8	1.511820E-2
4.245000E-8	1.444152E-2
4.250000E-8	1.376655E-2
4.255000E-8	1.310700E-2
4.260000E-8	1.249029E-2
4.265000E-8	1.192667E-2
4.270000E-8	1.146242E-2
4.275000E-8	1.114378E-2
4.280000E-8	1.096733E-2
4.285000E-8	1.093992E-2
4.290000E-8	1.110438E-2
4.295000E-8	1.146071E-2
4.300000E-8	1.197293E-2
4.305000E-8	1.263247E-2
4.310000E-8	1.339652E-2
4.315000E-8	1.421025E-2
4.320000E-8	1.504796E-2
4.325000E-8	1.586169E-2
4.330000E-8	1.662059E-2
4.335000E-8	1.734695E-2
4.340000E-8	1.804076E-2
4.345000E-8	1.863864E-2
4.350000E-8	1.910289E-2
4.355000E-8	1.940440E-2
4.360000E-8	1.952260E-2
4.365000E-8	1.946607E-2
4.370000E-8	1.927249E-2
4.375000E-8	1.892130E-2
4.380000E-8	1.840737E-2
4.385000E-8	1.779921E-2
4.390000E-8	1.711740E-2
4.395000E-8	1.631909E-2
4.400000E-8	1.544711E-2
4.405000E-8	1.459912E-2
4.410000E-8	1.381623E-2
4.415000E-8	1.305732E-2
4.420000E-8	1.235152E-2
4.425000E-8	1.177421E-2
4.430000E-8	1.136477E-2
4.435000E-8	1.114035E-2
4.440000E-8	1.108725E-2
4.445000E-8	1.119860E-2
4.450000E-8	1.146413E-2
4.455000E-8	1.190440E-2
4.460000E-8	1.248515E-2
4.465000E-8	1.314298E-2
4.470000E-8	1.383850E-2
4.475000E-8	1.456829E-2
4.480000E-8	1.528779E-2
4.485000E-8	1.593364E-2
4.490000E-8	1.646641E-2
4.495000E-8	1.689298E-2
4.500000E-8	1.721847E-2
4.505000E-8	1.743603E-2
4.510000E-8	1.753368E-2
4.515000E-8	1.754910E-2
4.520000E-8	1.750627E-2
4.525000E-8	1.738807E-2
4.530000E-8	1.719620E-2
4.535000E-8	1.698206E-2
4.540000E-8	1.674565E-2
4.545000E-8	1.646813E-2
4.550000E-8	1.617176E-2
4.555000E-8	1.588567E-2
4.560000E-8	1.557388E-2
4.565000E-8	1.525353E-2
4.570000E-8	1.496573E-2
4.575000E-8	1.466936E-2
4.580000E-8	1.433188E-2
4.585000E-8	1.399782E-2
4.590000E-8	1.367233E-2
4.595000E-8	1.334170E-2
4.600000E-8	1.306932E-2
4.605000E-8	1.288944E-2
4.610000E-8	1.273012E-2
4.615000E-8	1.257423E-2
4.620000E-8	1.245602E-2
4.625000E-8	1.236694E-2
4.630000E-8	1.228471E-2
4.635000E-8	1.226415E-2
4.640000E-8	1.232754E-2
4.645000E-8	1.243889E-2
4.650000E-8	1.261363E-2
4.655000E-8	1.288430E-2
4.660000E-8	1.324234E-2
4.665000E-8	1.366890E-2
4.670000E-8	1.417427E-2
4.675000E-8	1.473617E-2
4.680000E-8	1.530835E-2
4.685000E-8	1.589252E-2
4.690000E-8	1.647669E-2
4.695000E-8	1.699063E-2
4.700000E-8	1.738978E-2
4.705000E-8	1.766045E-2
4.710000E-8	1.779579E-2
4.715000E-8	1.775639E-2
4.720000E-8	1.751826E-2
4.725000E-8	1.707799E-2
4.730000E-8	1.647327E-2
4.735000E-8	1.574519E-2
4.740000E-8	1.493318E-2
4.745000E-8	1.407834E-2
4.750000E-8	1.321493E-2
4.755000E-8	1.236523E-2
4.760000E-8	1.156692E-2
4.765000E-8	1.090908E-2
4.770000E-8	1.042941E-2
4.775000E-8	1.012277E-2
4.780000E-8	1.001484E-2
4.785000E-8	1.011420E-2
4.790000E-8	1.039001E-2
4.795000E-8	1.083713E-2
4.800000E-8	1.145214E-2
4.805000E-8	1.214595E-2
4.810000E-8	1.288087E-2
4.815000E-8	1.367233E-2
4.820000E-8	1.446207E-2
4.825000E-8	1.517130E-2
4.830000E-8	1.582914E-2
4.835000E-8	1.643900E-2
4.840000E-8	1.692039E-2
4.845000E-8	1.724930E-2
4.850000E-8	1.748571E-2
4.855000E-8	1.760906E-2
4.860000E-8	1.759535E-2
4.865000E-8	1.747372E-2
4.870000E-8	1.724245E-2
4.875000E-8	1.689983E-2
4.880000E-8	1.648354E-2
4.885000E-8	1.603642E-2
4.890000E-8	1.557217E-2
4.895000E-8	1.511134E-2
4.900000E-8	1.466936E-2
4.905000E-8	1.425821E-2
4.910000E-8	1.389846E-2
4.915000E-8	1.359695E-2
4.920000E-8	1.331772E-2
4.925000E-8	1.302820E-2
4.930000E-8	1.276267E-2
4.935000E-8	1.253483E-2
4.940000E-8	1.230698E-2
4.945000E-8	1.208085E-2
4.950000E-8	1.189926E-2
4.955000E-8	1.179134E-2
4.960000E-8	1.173480E-2
4.965000E-8	1.173823E-2
4.970000E-8	1.180333E-2
4.975000E-8	1.191811E-2
4.980000E-8	1.210141E-2
4.985000E-8	1.240463E-2
4.990000E-8	1.279522E-2
4.995000E-8	1.321664E-2
5.000000E-8	1.366548E-2
5.005000E-8	1.414344E-2
5.010000E-8	1.461797E-2
5.015000E-8	1.508393E-2
5.020000E-8	1.554476E-2
5.025000E-8	1.595419E-2
5.030000E-8	1.628654E-2
5.035000E-8	1.654693E-2
5.040000E-8	1.672852E-2
5.045000E-8	1.682617E-2
5.050000E-8	1.686728E-2
5.055000E-8	1.682959E-2
5.060000E-8	1.668055E-2
5.065000E-8	1.644243E-2
5.070000E-8	1.613064E-2
5.075000E-8	1.571265E-2
5.080000E-8	1.519700E-2
5.085000E-8	1.464538E-2
5.090000E-8	1.409033E-2
5.095000E-8	1.351472E-2
5.100000E-8	1.289115E-2
5.105000E-8	1.226929E-2
5.110000E-8	1.169883E-2
5.115000E-8	1.117462E-2
5.120000E-8	1.070865E-2
5.125000E-8	1.036945E-2
5.130000E-8	1.017930E-2
5.135000E-8	1.010392E-2
5.140000E-8	1.020842E-2
5.145000E-8	1.053563E-2
5.150000E-8	1.101872E-2
5.155000E-8	1.163202E-2
5.160000E-8	1.238921E-2
5.165000E-8	1.323377E-2
5.170000E-8	1.408862E-2
5.175000E-8	1.494517E-2
5.180000E-8	1.578288E-2
5.185000E-8	1.655207E-2
5.190000E-8	1.723046E-2
5.195000E-8	1.775810E-2
5.200000E-8	1.808188E-2
5.205000E-8	1.820008E-2
5.210000E-8	1.811100E-2
5.215000E-8	1.779065E-2
5.220000E-8	1.727329E-2
5.225000E-8	1.659661E-2
5.230000E-8	1.578973E-2
5.235000E-8	1.493147E-2
5.240000E-8	1.408176E-2
5.245000E-8	1.323035E-2
5.250000E-8	1.245945E-2
5.255000E-8	1.184102E-2
5.260000E-8	1.135621E-2
5.265000E-8	1.101016E-2
5.270000E-8	1.090395E-2
5.275000E-8	1.099131E-2
5.280000E-8	1.116262E-2
5.285000E-8	1.142816E-2
5.290000E-8	1.182389E-2
5.295000E-8	1.226244E-2
5.300000E-8	1.268729E-2
5.305000E-8	1.311557E-2
5.310000E-8	1.351472E-2
5.315000E-8	1.383336E-2
5.320000E-8	1.410917E-2
5.325000E-8	1.434730E-2
5.330000E-8	1.448435E-2
5.335000E-8	1.453574E-2
5.340000E-8	1.457857E-2
5.345000E-8	1.461283E-2
5.350000E-8	1.460940E-2
5.355000E-8	1.459398E-2
5.360000E-8	1.459570E-2
5.365000E-8	1.459056E-2
5.370000E-8	1.457685E-2
5.375000E-8	1.458542E-2
5.380000E-8	1.460769E-2
5.385000E-8	1.460940E-2
5.390000E-8	1.460255E-2
5.395000E-8	1.459912E-2
5.400000E-8	1.456657E-2
5.405000E-8	1.447064E-2
5.410000E-8	1.432331E-2
5.415000E-8	1.414858E-2
5.420000E-8	1.393615E-2
5.425000E-8	1.367576E-2
5.430000E-8	1.338110E-2
5.435000E-8	1.306589E-2
5.440000E-8	1.274725E-2
5.445000E-8	1.245431E-2
5.450000E-8	1.221105E-2
5.455000E-8	1.197807E-2
5.460000E-8	1.174166E-2
5.465000E-8	1.154979E-2
5.470000E-8	1.144700E-2
5.475000E-8	1.141445E-2
5.480000E-8	1.145557E-2
5.485000E-8	1.159947E-2
5.490000E-8	1.183759E-2
5.495000E-8	1.214595E-2
5.500000E-8	1.255024E-2
5.505000E-8	1.305732E-2
5.510000E-8	1.363464E-2
5.515000E-8	1.425821E-2
5.520000E-8	1.488864E-2
5.525000E-8	1.548823E-2
5.530000E-8	1.604670E-2
5.535000E-8	1.655892E-2
5.540000E-8	1.697521E-2
5.545000E-8	1.726644E-2
5.550000E-8	1.745316E-2
5.555000E-8	1.751655E-2
5.560000E-8	1.736922E-2
5.565000E-8	1.701803E-2
5.570000E-8	1.652466E-2
5.575000E-8	1.589937E-2
5.580000E-8	1.516959E-2
5.585000E-8	1.441411E-2
5.590000E-8	1.366205E-2
5.595000E-8	1.288944E-2
5.600000E-8	1.214252E-2
5.605000E-8	1.150525E-2
5.610000E-8	1.098104E-2
5.615000E-8	1.055447E-2
5.620000E-8	1.026496E-2
5.625000E-8	1.015018E-2
5.630000E-8	1.018787E-2
5.635000E-8	1.034033E-2
5.640000E-8	1.059901E-2
5.645000E-8	1.095191E-2
5.650000E-8	1.137505E-2
5.655000E-8	1.185643E-2
5.660000E-8	1.238407E-2
5.665000E-8	1.292199E-2
5.670000E-8	1.345648E-2
5.675000E-8	1.402009E-2
5.680000E-8	1.456829E-2
5.685000E-8	1.502569E-2
5.690000E-8	1.541628E-2
5.695000E-8	1.577260E-2
5.700000E-8	1.603814E-2
5.705000E-8	1.616662E-2
5.710000E-8	1.623172E-2
5.715000E-8	1.624542E-2
5.720000E-8	1.614435E-2
5.725000E-8	1.590109E-2
5.730000E-8	1.553791E-2
5.735000E-8	1.505824E-2
5.740000E-8	1.450662E-2
5.745000E-8	1.392930E-2
5.750000E-8	1.332286E-2
5.755000E-8	1.271813E-2
5.760000E-8	1.218706E-2
5.765000E-8	1.174508E-2
5.770000E-8	1.138019E-2
5.775000E-8	1.111637E-2
5.780000E-8	1.096219E-2
5.785000E-8	1.090395E-2
5.790000E-8	1.092450E-2
5.795000E-8	1.100331E-2
5.800000E-8	1.111466E-2
5.805000E-8	1.125171E-2
5.810000E-8	1.138190E-2
5.815000E-8	1.146242E-2
5.820000E-8	1.151724E-2
5.825000E-8	1.158576E-2
5.830000E-8	1.164743E-2
5.835000E-8	1.172795E-2
5.840000E-8	1.188384E-2
5.845000E-8	1.210826E-2
5.850000E-8	1.236694E-2
5.855000E-8	1.269243E-2
5.860000E-8	1.307959E-2
5.865000E-8	1.343935E-2
5.870000E-8	1.374771E-2
5.875000E-8	1.404579E-2
5.880000E-8	1.432331E-2
5.885000E-8	1.450490E-2
5.890000E-8	1.458199E-2
5.895000E-8	1.457514E-2
5.900000E-8	1.446721E-2
5.905000E-8	1.424108E-2
5.910000E-8	1.393958E-2
5.915000E-8	1.360381E-2
5.920000E-8	1.323377E-2
5.925000E-8	1.283462E-2
5.930000E-8	1.244917E-2
5.935000E-8	1.208770E-2
5.940000E-8	1.173994E-2
5.945000E-8	1.143501E-2
5.950000E-8	1.119689E-2
5.955000E-8	1.101701E-2
5.960000E-8	1.090052E-2
5.965000E-8	1.087654E-2
5.970000E-8	1.094506E-2
5.975000E-8	1.107012E-2
5.980000E-8	1.123286E-2
5.985000E-8	1.144357E-2
5.990000E-8	1.173480E-2
5.995000E-8	1.208256E-2
6.000000E-8	1.245602E-2
6.005000E-8	1.286546E-2
6.010000E-8	1.332971E-2
6.015000E-8	1.380424E-2
6.020000E-8	1.424622E-2
6.025000E-8	1.466251E-2
6.030000E-8	1.503083E-2
6.035000E-8	1.531349E-2
6.040000E-8	1.550365E-2
6.045000E-8	1.558587E-2
6.050000E-8	1.555161E-2
6.055000E-8	1.538544E-2
6.060000E-8	1.507708E-2
6.065000E-8	1.467107E-2
6.070000E-8	1.421367E-2
6.075000E-8	1.369289E-2
6.080000E-8	1.312756E-2
6.085000E-8	1.260678E-2
6.090000E-8	1.218878E-2
6.095000E-8	1.184958E-2
6.100000E-8	1.159262E-2
6.105000E-8	1.144871E-2
6.110000E-8	1.141103E-2
6.115000E-8	1.143672E-2
6.120000E-8	1.151210E-2
6.125000E-8	1.162345E-2
6.130000E-8	1.175022E-2
6.135000E-8	1.186671E-2
6.140000E-8	1.195922E-2
6.145000E-8	1.204488E-2
6.150000E-8	1.211340E-2
6.155000E-8	1.212882E-2
6.160000E-8	1.211854E-2
6.165000E-8	1.213396E-2
6.170000E-8	1.214938E-2
6.175000E-8	1.216308E-2
6.180000E-8	1.224360E-2
6.185000E-8	1.240120E-2
6.190000E-8	1.259821E-2
6.195000E-8	1.285860E-2
6.200000E-8	1.318238E-2
6.205000E-8	1.350102E-2
6.210000E-8	1.378882E-2
6.215000E-8	1.407320E-2
6.220000E-8	1.431132E-2
6.225000E-8	1.446207E-2
6.230000E-8	1.453231E-2
6.235000E-8	1.450833E-2
6.240000E-8	1.439184E-2
6.245000E-8	1.422395E-2
6.250000E-8	1.400125E-2
6.255000E-8	1.368604E-2
6.260000E-8	1.331429E-2
6.265000E-8	1.294255E-2
6.270000E-8	1.255538E-2
6.275000E-8	1.214081E-2
6.280000E-8	1.170225E-2
6.285000E-8	1.123971E-2
6.290000E-8	1.077889E-2
6.295000E-8	1.034718E-2
6.300000E-8	9.937751E-3
6.305000E-8	9.571146E-3
6.310000E-8	9.329597E-3
6.315000E-8	9.202827E-3
6.320000E-8	9.156573E-3
6.325000E-8	9.218245E-3
6.330000E-8	9.427244E-3
6.335000E-8	9.757875E-3
6.340000E-8	1.017073E-2
6.345000E-8	1.070522E-2
6.350000E-8	1.134593E-2
6.355000E-8	1.201918E-2
6.360000E-8	1.266845E-2
6.365000E-8	1.325776E-2
6.370000E-8	1.374771E-2
6.375000E-8	1.411431E-2
6.380000E-8	1.437642E-2
6.385000E-8	1.452032E-2
6.390000E-8	1.452717E-2
6.395000E-8	1.441925E-2
6.400000E-8	1.423766E-2
6.405000E-8	1.398069E-2
6.410000E-8	1.363807E-2
6.415000E-8	1.325262E-2
6.420000E-8	1.287402E-2
6.425000E-8	1.252797E-2
6.430000E-8	1.218021E-2
6.435000E-8	1.180847E-2
6.440000E-8	1.145728E-2
6.445000E-8	1.117119E-2
6.450000E-8	1.092964E-2
6.455000E-8	1.070522E-2
6.460000E-8	1.054077E-2
6.465000E-8	1.045168E-2
6.470000E-8	1.042256E-2
6.475000E-8	1.045854E-2
6.480000E-8	1.057160E-2
6.485000E-8	1.073777E-2
6.490000E-8	1.093478E-2
6.495000E-8	1.117119E-2
6.500000E-8	1.142302E-2
6.505000E-8	1.166628E-2
6.510000E-8	1.189755E-2
6.515000E-8	1.212197E-2
6.520000E-8	1.231212E-2
6.525000E-8	1.247315E-2
6.530000E-8	1.263247E-2
6.535000E-8	1.278494E-2
6.540000E-8	1.293569E-2
6.545000E-8	1.309673E-2
6.550000E-8	1.325947E-2
6.555000E-8	1.342736E-2
6.560000E-8	1.359524E-2
6.565000E-8	1.373914E-2
6.570000E-8	1.383508E-2
6.575000E-8	1.389675E-2
6.580000E-8	1.391388E-2
6.585000E-8	1.385906E-2
6.590000E-8	1.373058E-2
6.595000E-8	1.354727E-2
6.600000E-8	1.330915E-2
6.605000E-8	1.302478E-2
6.610000E-8	1.272327E-2
6.615000E-8	1.240634E-2
6.620000E-8	1.205344E-2
6.625000E-8	1.170568E-2
6.630000E-8	1.141959E-2
6.635000E-8	1.116948E-2
6.640000E-8	1.092450E-2
6.645000E-8	1.069152E-2
6.650000E-8	1.051850E-2
6.655000E-8	1.040372E-2
6.660000E-8	1.032834E-2
6.665000E-8	1.031635E-2
6.670000E-8	1.039515E-2
6.675000E-8	1.057503E-2
6.680000E-8	1.083028E-2
6.685000E-8	1.115063E-2
6.690000E-8	1.152752E-2
6.695000E-8	1.194209E-2
6.700000E-8	1.238065E-2
6.705000E-8	1.281406E-2
6.710000E-8	1.320808E-2
6.715000E-8	1.354727E-2
6.720000E-8	1.380595E-2
6.725000E-8	1.392930E-2
6.730000E-8	1.391388E-2
6.735000E-8	1.379225E-2
6.740000E-8	1.359695E-2
6.745000E-8	1.334684E-2
6.750000E-8	1.306418E-2
6.755000E-8	1.275239E-2
6.760000E-8	1.242690E-2
6.765000E-8	1.212197E-2
6.770000E-8	1.183245E-2
6.775000E-8	1.153437E-2
6.780000E-8	1.123971E-2
6.785000E-8	1.096390E-2
6.790000E-8	1.067439E-2
6.795000E-8	1.038145E-2
6.800000E-8	1.011591E-2
6.805000E-8	9.881219E-3
6.810000E-8	9.682498E-3
6.815000E-8	9.542023E-3
6.820000E-8	9.452941E-3
6.825000E-8	9.413540E-3
6.830000E-8	9.463220E-3
6.835000E-8	9.629391E-3
6.840000E-8	9.874366E-3
6.845000E-8	1.018615E-2
6.850000E-8	1.058188E-2
6.855000E-8	1.103414E-2
6.860000E-8	1.147612E-2
6.865000E-8	1.189241E-2
6.870000E-8	1.231555E-2
6.875000E-8	1.272155E-2
6.880000E-8	1.303848E-2
6.885000E-8	1.322864E-2
6.890000E-8	1.332800E-2
6.895000E-8	1.337596E-2
6.900000E-8	1.337768E-2
6.905000E-8	1.327489E-2
6.910000E-8	1.306246E-2
6.915000E-8	1.279351E-2
6.920000E-8	1.249029E-2
6.925000E-8	1.211169E-2
6.930000E-8	1.170739E-2
6.935000E-8	1.134079E-2
6.940000E-8	1.098789E-2
6.945000E-8	1.060929E-2
6.950000E-8	1.025296E-2
6.955000E-8	9.961735E-3
6.960000E-8	9.732178E-3
6.965000E-8	9.572859E-3
6.970000E-8	9.476925E-3
6.975000E-8	9.428957E-3
6.980000E-8	9.452941E-3
6.985000E-8	9.560867E-3
6.990000E-8	9.727039E-3
6.995000E-8	9.929186E-3
7.000000E-8	1.017416E-2
7.005000E-8	1.044312E-2
7.010000E-8	1.069495E-2
7.015000E-8	1.093135E-2
7.020000E-8	1.115920E-2
7.025000E-8	1.135621E-2
7.030000E-8	1.151895E-2
7.035000E-8	1.165943E-2
7.040000E-8	1.176050E-2
7.045000E-8	1.181018E-2
7.050000E-8	1.185472E-2
7.055000E-8	1.190783E-2
7.060000E-8	1.194209E-2
7.065000E-8	1.197293E-2
7.070000E-8	1.201918E-2
7.075000E-8	1.205002E-2
7.080000E-8	1.203288E-2
7.085000E-8	1.196779E-2
7.090000E-8	1.184787E-2
7.095000E-8	1.165086E-2
7.100000E-8	1.140417E-2
7.105000E-8	1.113179E-2
7.110000E-8	1.082857E-2
7.115000E-8	1.049280E-2
7.120000E-8	1.014332E-2
7.125000E-8	9.793850E-3
7.130000E-8	9.468359E-3
7.135000E-8	9.202827E-3
7.140000E-8	9.009246E-3
7.145000E-8	8.872197E-3
7.150000E-8	8.800246E-3
7.155000E-8	8.810525E-3
7.160000E-8	8.911598E-3
7.165000E-8	9.096614E-3
7.170000E-8	9.343302E-3
7.175000E-8	9.634531E-3
7.180000E-8	9.975440E-3
7.185000E-8	1.036260E-2
7.190000E-8	1.077204E-2
7.195000E-8	1.116948E-2
7.200000E-8	1.152580E-2
7.205000E-8	1.184444E-2
7.210000E-8	1.213396E-2
7.215000E-8	1.236523E-2
7.220000E-8	1.251941E-2
7.225000E-8	1.261363E-2
7.230000E-8	1.267187E-2
7.235000E-8	1.265817E-2
7.240000E-8	1.256052E-2
7.245000E-8	1.241833E-2
7.250000E-8	1.225216E-2
7.255000E-8	1.204145E-2
7.260000E-8	1.177421E-2
7.265000E-8	1.147441E-2
7.270000E-8	1.116605E-2
7.275000E-8	1.087311E-2
7.280000E-8	1.059901E-2
7.285000E-8	1.034033E-2
7.290000E-8	1.009193E-2
7.295000E-8	9.857235E-3
7.300000E-8	9.646522E-3
7.305000E-8	9.468359E-3
7.310000E-8	9.357007E-3
7.315000E-8	9.319318E-3
7.320000E-8	9.334736E-3
7.325000E-8	9.392982E-3
7.330000E-8	9.497482E-3
7.335000E-8	9.667080E-3
7.340000E-8	9.912055E-3
7.345000E-8	1.019814E-2
7.350000E-8	1.050136E-2
7.355000E-8	1.083371E-2
7.360000E-8	1.122087E-2
7.365000E-8	1.158405E-2
7.370000E-8	1.187357E-2
7.375000E-8	1.212539E-2
7.380000E-8	1.232411E-2
7.385000E-8	1.243204E-2
7.390000E-8	1.246459E-2
7.395000E-8	1.241833E-2
7.400000E-8	1.227786E-2
7.405000E-8	1.205173E-2
7.410000E-8	1.182046E-2
7.415000E-8	1.158234E-2
7.420000E-8	1.134250E-2
7.425000E-8	1.113864E-2
7.430000E-8	1.096562E-2
7.435000E-8	1.079773E-2
7.440000E-8	1.066754E-2
7.445000E-8	1.057674E-2
7.450000E-8	1.046025E-2
7.455000E-8	1.030950E-2
7.460000E-8	1.019472E-2
7.465000E-8	1.011420E-2
7.470000E-8	1.001484E-2
7.475000E-8	9.905202E-3
7.480000E-8	9.817833E-3
7.485000E-8	9.740744E-3
7.490000E-8	9.670506E-3
7.495000E-8	9.653375E-3
7.500000E-8	9.701342E-3
7.505000E-8	9.780145E-3
7.510000E-8	9.893210E-3
7.515000E-8	1.005596E-2
7.520000E-8	1.023926E-2
7.525000E-8	1.044141E-2
7.530000E-8	1.067610E-2
7.535000E-8	1.093135E-2
7.540000E-8	1.118832E-2
7.545000E-8	1.144529E-2
7.550000E-8	1.168341E-2
7.555000E-8	1.188384E-2
7.560000E-8	1.205173E-2
7.565000E-8	1.219392E-2
7.570000E-8	1.229328E-2
7.575000E-8	1.234638E-2
7.580000E-8	1.233782E-2
7.585000E-8	1.225045E-2
7.590000E-8	1.206029E-2
7.595000E-8	1.173823E-2
7.600000E-8	1.131509E-2
7.605000E-8	1.085427E-2
7.610000E-8	1.036774E-2
7.615000E-8	9.833251E-3
7.620000E-8	9.303900E-3
7.625000E-8	8.841361E-3
7.630000E-8	8.454198E-3
7.635000E-8	8.150977E-3
7.640000E-8	7.989945E-3
7.645000E-8	7.974527E-3
7.650000E-8	8.058469E-3
7.655000E-8	8.234920E-3
7.660000E-8	8.514157E-3
7.665000E-8	8.870484E-3
7.670000E-8	9.254220E-3
7.675000E-8	9.613973E-3
7.680000E-8	9.937751E-3
7.685000E-8	1.025468E-2
7.690000E-8	1.057331E-2
7.695000E-8	1.082686E-2
7.700000E-8	1.099817E-2
7.705000E-8	1.113693E-2
7.710000E-8	1.126712E-2
7.715000E-8	1.136135E-2
7.720000E-8	1.142987E-2
7.725000E-8	1.151039E-2
7.730000E-8	1.160632E-2
7.735000E-8	1.169026E-2
7.740000E-8	1.173309E-2
7.745000E-8	1.172795E-2
7.750000E-8	1.167827E-2
7.755000E-8	1.158748E-2
7.760000E-8	1.144015E-2
7.765000E-8	1.122430E-2
7.770000E-8	1.096048E-2
7.775000E-8	1.066925E-2
7.780000E-8	1.034547E-2
7.785000E-8	9.970300E-3
7.790000E-8	9.593416E-3
7.795000E-8	9.269638E-3
7.800000E-8	8.992114E-3
7.805000E-8	8.767697E-3
7.810000E-8	8.644353E-3
7.815000E-8	8.603238E-3
7.820000E-8	8.608378E-3
7.825000E-8	8.683755E-3
7.830000E-8	8.832795E-3
7.835000E-8	9.002393E-3
7.840000E-8	9.185696E-3
7.845000E-8	9.380990E-3
7.850000E-8	9.560867E-3
7.855000E-8	9.718473E-3
7.860000E-8	9.874366E-3
7.865000E-8	1.003026E-2
7.870000E-8	1.021014E-2
7.875000E-8	1.042599E-2
7.880000E-8	1.063670E-2
7.885000E-8	1.085084E-2
7.890000E-8	1.111808E-2
7.895000E-8	1.139389E-2
7.900000E-8	1.160632E-2
7.905000E-8	1.175707E-2
7.910000E-8	1.187185E-2
7.915000E-8	1.191125E-2
7.920000E-8	1.187357E-2
7.925000E-8	1.176735E-2
7.930000E-8	1.156349E-2
7.935000E-8	1.127912E-2
7.940000E-8	1.095191E-2
7.945000E-8	1.057845E-2
7.950000E-8	1.016559E-2
7.955000E-8	9.780145E-3
7.960000E-8	9.437523E-3
7.965000E-8	9.118885E-3
7.970000E-8	8.844787E-3
7.975000E-8	8.628935E-3
7.980000E-8	8.455911E-3
7.985000E-8	8.330854E-3
7.990000E-8	8.282887E-3
7.995000E-8	8.293166E-3
8.000000E-8	8.339420E-3
8.005000E-8	8.438780E-3
8.010000E-8	8.580968E-3
8.015000E-8	8.712878E-3
8.020000E-8	8.827656E-3
8.025000E-8	8.971557E-3
8.030000E-8	9.141155E-3
8.035000E-8	9.336450E-3
8.040000E-8	9.591703E-3
8.045000E-8	9.896637E-3
8.050000E-8	1.019986E-2
8.055000E-8	1.050136E-2
8.060000E-8	1.080630E-2
8.065000E-8	1.106155E-2
8.070000E-8	1.124143E-2
8.075000E-8	1.136820E-2
8.080000E-8	1.142130E-2
8.085000E-8	1.136991E-2
8.090000E-8	1.123971E-2
8.095000E-8	1.103757E-2
8.100000E-8	1.073949E-2
8.105000E-8	1.037631E-2
8.110000E-8	1.000628E-2
8.115000E-8	9.636244E-3
8.120000E-8	9.271351E-3
8.125000E-8	8.959565E-3
8.130000E-8	8.735148E-3
8.135000E-8	8.608378E-3
8.140000E-8	8.551845E-3
8.145000E-8	8.521009E-3
8.150000E-8	8.527862E-3
8.155000E-8	8.598099E-3
8.160000E-8	8.692320E-3
8.165000E-8	8.789967E-3
8.170000E-8	8.918451E-3
8.175000E-8	9.053786E-3
8.180000E-8	9.163425E-3
8.185000E-8	9.279917E-3
8.190000E-8	9.401548E-3
8.195000E-8	9.487203E-3
8.200000E-8	9.588277E-3
8.205000E-8	9.764727E-3
8.210000E-8	9.956595E-3
8.215000E-8	1.011763E-2
8.220000E-8	1.028551E-2
8.225000E-8	1.044483E-2
8.230000E-8	1.056646E-2
8.235000E-8	1.068124E-2
8.240000E-8	1.079602E-2
8.245000E-8	1.086112E-2
8.250000E-8	1.088510E-2
8.255000E-8	1.088853E-2
8.260000E-8	1.085084E-2
8.265000E-8	1.077889E-2
8.270000E-8	1.068124E-2
8.275000E-8	1.055104E-2
8.280000E-8	1.041228E-2
8.285000E-8	1.028209E-2
8.290000E-8	1.010735E-2
8.295000E-8	9.876079E-3
8.300000E-8	9.667080E-3
8.305000E-8	9.488916E-3
8.310000E-8	9.285056E-3
8.315000E-8	9.093188E-3
8.320000E-8	8.954426E-3
8.325000E-8	8.808812E-3
8.330000E-8	8.656345E-3
8.335000E-8	8.598099E-3
8.340000E-8	8.627222E-3
8.345000E-8	8.649492E-3
8.350000E-8	8.695746E-3
8.355000E-8	8.848213E-3
8.360000E-8	9.034942E-3
8.365000E-8	9.189122E-3
8.370000E-8	9.339876E-3
8.375000E-8	9.487203E-3
8.380000E-8	9.586564E-3
8.385000E-8	9.646522E-3
8.390000E-8	9.697916E-3
8.395000E-8	9.709908E-3
8.400000E-8	9.684211E-3
8.405000E-8	9.656801E-3
8.410000E-8	9.620826E-3
8.415000E-8	9.567719E-3
8.420000E-8	9.547162E-3
8.425000E-8	9.562580E-3
8.430000E-8	9.555728E-3
8.435000E-8	9.536883E-3
8.440000E-8	9.538597E-3
8.445000E-8	9.526605E-3
8.450000E-8	9.485490E-3
8.455000E-8	9.451228E-3
8.460000E-8	9.408400E-3
8.465000E-8	9.322745E-3
8.470000E-8	9.209679E-3
8.475000E-8	9.088049E-3
8.480000E-8	8.939008E-3
8.485000E-8	8.777976E-3
8.490000E-8	8.647779E-3
8.495000E-8	8.544993E-3
8.500000E-8	8.483321E-3
8.505000E-8	8.467903E-3
8.510000E-8	8.478181E-3
8.515000E-8	8.502165E-3
8.520000E-8	8.556984E-3
8.525000E-8	8.647779E-3
8.530000E-8	8.764271E-3
8.535000E-8	8.921877E-3
8.540000E-8	9.103467E-3
8.545000E-8	9.286769E-3
8.550000E-8	9.478638E-3
8.555000E-8	9.682498E-3
8.560000E-8	9.864087E-3
8.565000E-8	1.001827E-2
8.570000E-8	1.015532E-2
8.575000E-8	1.025125E-2
8.580000E-8	1.029922E-2
8.585000E-8	1.032491E-2
8.590000E-8	1.032149E-2
8.595000E-8	1.025468E-2
8.600000E-8	1.014161E-2
8.605000E-8	1.003882E-2
8.610000E-8	9.961735E-3
8.615000E-8	9.886358E-3
8.620000E-8	9.802415E-3
8.625000E-8	9.730465E-3
8.630000E-8	9.682498E-3
8.635000E-8	9.636244E-3
8.640000E-8	9.586564E-3
8.645000E-8	9.545449E-3
8.650000E-8	9.499195E-3
8.655000E-8	9.434097E-3
8.660000E-8	9.367286E-3
8.665000E-8	9.310753E-3
8.670000E-8	9.230237E-3
8.675000E-8	9.103467E-3
8.680000E-8	8.937295E-3
8.685000E-8	8.769410E-3
8.690000E-8	8.637501E-3
8.695000E-8	8.560411E-3
8.700000E-8	8.510731E-3
8.705000E-8	8.483321E-3
8.710000E-8	8.519296E-3
8.715000E-8	8.632361E-3
8.720000E-8	8.800246E-3
8.725000E-8	9.021237E-3
8.730000E-8	9.298761E-3
8.735000E-8	9.617400E-3
8.740000E-8	9.963448E-3
8.745000E-8	1.031121E-2
8.750000E-8	1.062813E-2
8.755000E-8	1.090223E-2
8.760000E-8	1.111808E-2
8.765000E-8	1.124143E-2
8.770000E-8	1.126370E-2
8.775000E-8	1.120374E-2
8.780000E-8	1.107012E-2
8.785000E-8	1.088339E-2
8.790000E-8	1.066068E-2
8.795000E-8	1.040372E-2
8.800000E-8	1.011420E-2
8.805000E-8	9.824686E-3
8.810000E-8	9.552301E-3
8.815000E-8	9.278204E-3
8.820000E-8	9.005819E-3
8.825000E-8	8.765984E-3
8.830000E-8	8.589534E-3
8.835000E-8	8.478181E-3
8.840000E-8	8.416509E-3
8.845000E-8	8.418223E-3
8.850000E-8	8.488460E-3
8.855000E-8	8.611804E-3
8.860000E-8	8.772836E-3
8.865000E-8	8.957852E-3
8.870000E-8	9.148007E-3
8.875000E-8	9.336450E-3
8.880000E-8	9.538597E-3
8.885000E-8	9.728752E-3
8.890000E-8	9.855522E-3
8.895000E-8	9.918907E-3
8.900000E-8	9.939464E-3
8.905000E-8	9.934325E-3
8.910000E-8	9.889784E-3
8.915000E-8	9.809268E-3
8.920000E-8	9.723612E-3
8.925000E-8	9.682498E-3
8.930000E-8	9.679072E-3
8.935000E-8	9.658514E-3
8.940000E-8	9.624252E-3
8.945000E-8	9.610547E-3
8.950000E-8	9.601982E-3
8.955000E-8	9.540310E-3
8.960000E-8	9.444375E-3
8.965000E-8	9.331310E-3
8.970000E-8	9.168565E-3
8.975000E-8	8.935582E-3
8.980000E-8	8.678615E-3
8.985000E-8	8.435354E-3
8.990000E-8	8.174961E-3
8.995000E-8	7.882019E-3
9.000000E-8	7.590790E-3
9.005000E-8	7.330398E-3
9.010000E-8	7.128251E-3
9.015000E-8	7.016899E-3
9.020000E-8	7.013472E-3
9.025000E-8	7.095702E-3
9.030000E-8	7.260160E-3
9.035000E-8	7.529118E-3
9.040000E-8	7.876880E-3
9.045000E-8	8.238346E-3
9.050000E-8	8.565550E-3
9.055000E-8	8.829369E-3
9.060000E-8	9.016098E-3
9.065000E-8	9.132589E-3
9.070000E-8	9.187409E-3
9.075000E-8	9.171991E-3
9.080000E-8	9.117171E-3
9.085000E-8	9.053786E-3
9.090000E-8	8.971557E-3
9.095000E-8	8.880762E-3
9.100000E-8	8.831082E-3
9.105000E-8	8.824230E-3
9.110000E-8	8.829369E-3
9.115000E-8	8.867057E-3
9.120000E-8	8.935582E-3
9.125000E-8	8.993828E-3
9.130000E-8	8.992114E-3
9.135000E-8	8.944147E-3
9.140000E-8	8.872197E-3
9.145000E-8	8.767697E-3
9.150000E-8	8.608378E-3
9.155000E-8	8.397665E-3
9.160000E-8	8.164682E-3
9.165000E-8	7.948830E-3
9.170000E-8	7.751823E-3
9.175000E-8	7.606208E-3
9.180000E-8	7.541110E-3
9.185000E-8	7.546250E-3
9.190000E-8	7.625053E-3
9.195000E-8	7.796364E-3
9.200000E-8	8.032773E-3
9.205000E-8	8.293166E-3
9.210000E-8	8.570689E-3
9.215000E-8	8.846500E-3
9.220000E-8	9.074344E-3
9.225000E-8	9.249081E-3
9.230000E-8	9.380990E-3
9.235000E-8	9.458080E-3
9.240000E-8	9.487203E-3
9.245000E-8	9.497482E-3
9.250000E-8	9.490629E-3
9.255000E-8	9.452941E-3
9.260000E-8	9.406687E-3
9.265000E-8	9.384417E-3
9.270000E-8	9.389556E-3
9.275000E-8	9.391269E-3
9.280000E-8	9.358720E-3
9.285000E-8	9.312466E-3
9.290000E-8	9.269638E-3
9.295000E-8	9.185696E-3
9.300000E-8	9.050360E-3
9.305000E-8	8.911598E-3
9.310000E-8	8.781402E-3
9.315000E-8	8.635788E-3
9.320000E-8	8.500452E-3
9.325000E-8	8.419936E-3
9.330000E-8	8.385673E-3
9.335000E-8	8.382247E-3
9.340000E-8	8.406231E-3
9.345000E-8	8.454198E-3
9.350000E-8	8.522722E-3
9.355000E-8	8.608378E-3
9.360000E-8	8.688894E-3
9.365000E-8	8.753992E-3
9.370000E-8	8.810525E-3
9.375000E-8	8.841361E-3
9.380000E-8	8.837935E-3
9.385000E-8	8.839648E-3
9.390000E-8	8.861918E-3
9.395000E-8	8.843074E-3
9.400000E-8	8.774549E-3
9.405000E-8	8.714591E-3
9.410000E-8	8.663197E-3
9.415000E-8	8.591247E-3
9.420000E-8	8.522722E-3
9.425000E-8	8.464477E-3
9.430000E-8	8.389100E-3
9.435000E-8	8.303444E-3
9.440000E-8	8.226354E-3
9.445000E-8	8.147551E-3
9.450000E-8	8.091019E-3
9.455000E-8	8.084166E-3
9.460000E-8	8.087592E-3
9.465000E-8	8.073887E-3
9.470000E-8	8.084166E-3
9.475000E-8	8.138986E-3
9.480000E-8	8.150977E-3
9.485000E-8	8.099584E-3
9.490000E-8	8.043051E-3
9.495000E-8	7.979666E-3
9.500000E-8	7.882019E-3
9.505000E-8	7.775806E-3
9.510000E-8	7.702143E-3
9.515000E-8	7.654176E-3
9.520000E-8	7.655889E-3
9.525000E-8	7.717561E-3
9.530000E-8	7.816921E-3
9.535000E-8	7.947117E-3
9.540000E-8	8.142412E-3
9.545000E-8	8.363403E-3
9.550000E-8	8.570689E-3
9.555000E-8	8.774549E-3
9.560000E-8	8.962992E-3
9.565000E-8	9.106893E-3
9.570000E-8	9.216532E-3
9.575000E-8	9.314179E-3
9.580000E-8	9.387843E-3
9.585000E-8	9.434097E-3
9.590000E-8	9.480351E-3
9.595000E-8	9.523179E-3
9.600000E-8	9.548875E-3
9.605000E-8	9.564293E-3
9.610000E-8	9.555728E-3
9.615000E-8	9.490629E-3
9.620000E-8	9.355294E-3
9.625000E-8	9.183983E-3
9.630000E-8	8.990401E-3
9.635000E-8	8.772836E-3
9.640000E-8	8.519296E-3
9.645000E-8	8.248625E-3
9.650000E-8	7.996798E-3
9.655000E-8	7.784372E-3
9.660000E-8	7.611348E-3
9.665000E-8	7.481151E-3
9.670000E-8	7.434897E-3
9.675000E-8	7.477725E-3
9.680000E-8	7.571946E-3
9.685000E-8	7.683298E-3
9.690000E-8	7.825487E-3
9.695000E-8	7.996798E-3
9.700000E-8	8.181813E-3
9.705000E-8	8.365116E-3
9.710000E-8	8.538140E-3
9.715000E-8	8.664910E-3
9.720000E-8	8.731722E-3
9.725000E-8	8.760845E-3
9.730000E-8	8.776263E-3
9.735000E-8	8.776263E-3
9.740000E-8	8.762558E-3
9.745000E-8	8.760845E-3
9.750000E-8	8.774549E-3
9.755000E-8	8.759131E-3
9.760000E-8	8.712878E-3
9.765000E-8	8.680328E-3
9.770000E-8	8.663197E-3
9.775000E-8	8.640927E-3
9.780000E-8	8.647779E-3
9.785000E-8	8.695746E-3
9.790000E-8	8.707738E-3
9.795000E-8	8.661484E-3
9.800000E-8	8.615230E-3
9.805000E-8	8.579255E-3
9.810000E-8	8.505591E-3
9.815000E-8	8.402805E-3
9.820000E-8	8.310297E-3
9.825000E-8	8.207510E-3
9.830000E-8	8.060183E-3
9.835000E-8	7.912855E-3
9.840000E-8	7.823773E-3
9.845000E-8	7.762101E-3
9.850000E-8	7.683298E-3
9.855000E-8	7.635331E-3
9.860000E-8	7.655889E-3
9.865000E-8	7.712421E-3
9.870000E-8	7.772380E-3
9.875000E-8	7.876880E-3
9.880000E-8	8.017355E-3
9.885000E-8	8.162969E-3
9.890000E-8	8.312010E-3
9.895000E-8	8.483321E-3
9.900000E-8	8.628935E-3
9.905000E-8	8.745427E-3
9.910000E-8	8.858492E-3
9.915000E-8	8.956139E-3
9.920000E-8	9.012672E-3
9.925000E-8	9.046934E-3
9.930000E-8	9.065778E-3
9.935000E-8	9.060639E-3
9.940000E-8	9.031516E-3
9.945000E-8	8.985262E-3
9.950000E-8	8.903033E-3
9.955000E-8	8.805385E-3
9.960000E-8	8.723156E-3
9.965000E-8	8.659771E-3
9.970000E-8	8.606665E-3
9.975000E-8	8.565550E-3
9.980000E-8	8.505591E-3
9.985000E-8	8.399378E-3
9.990000E-8	8.272608E-3
9.995000E-8	8.156117E-3
1.000000E-7	8.036199E-3
1.000500E-7	7.890585E-3
1.001000E-7	7.708995E-3
1.001500E-7	7.522266E-3
1.002000E-7	7.376652E-3
1.002500E-7	7.275578E-3
1.003000E-7	7.203628E-3
1.003500E-7	7.165939E-3
1.004000E-7	7.177931E-3
1.004500E-7	7.243029E-3
1.005000E-7	7.362947E-3
1.005500E-7	7.544536E-3
1.006000E-7	7.772380E-3
1.006500E-7	8.019068E-3
1.007000E-7	8.248625E-3
1.007500E-7	8.450772E-3
1.008000E-7	8.627222E-3
1.008500E-7	8.784828E-3
1.009000E-7	8.935582E-3
1.009500E-7	9.067491E-3
1.010000E-7	9.165139E-3
1.010500E-7	9.213106E-3
1.011000E-7	9.201114E-3
1.011500E-7	9.132589E-3
1.012000E-7	9.040082E-3
1.012500E-7	8.927016E-3
1.013000E-7	8.759131E-3
1.013500E-7	8.531288E-3
1.014000E-7	8.298305E-3
1.014500E-7	8.085879E-3
1.015000E-7	7.859749E-3
1.015500E-7	7.618200E-3
1.016000E-7	7.405775E-3
1.016500E-7	7.241316E-3
1.017000E-7	7.092275E-3
1.017500E-7	6.948374E-3
1.018000E-7	6.838735E-3
1.018500E-7	6.758219E-3
1.019000E-7	6.708539E-3
1.019500E-7	6.706826E-3
1.020000E-7	6.744514E-3
1.020500E-7	6.804473E-3
1.021000E-7	6.915825E-3
1.021500E-7	7.097415E-3
1.022000E-7	7.306414E-3
1.022500E-7	7.510274E-3
1.023000E-7	7.732979E-3
1.023500E-7	7.948830E-3
1.024000E-7	8.128707E-3
1.024500E-7	8.279461E-3
1.025000E-7	8.433641E-3
1.025500E-7	8.570689E-3
1.026000E-7	8.647779E-3
1.026500E-7	8.670050E-3
1.027000E-7	8.659771E-3
1.027500E-7	8.611804E-3
1.028000E-7	8.521009E-3
1.028500E-7	8.404518E-3
1.029000E-7	8.265756E-3
1.029500E-7	8.103010E-3
1.030000E-7	7.941978E-3
1.030500E-7	7.815208E-3
1.031000E-7	7.732979E-3
1.031500E-7	7.691864E-3
1.032000E-7	7.708995E-3
1.032500E-7	7.792937E-3
1.033000E-7	7.912855E-3
1.033500E-7	8.027634E-3
1.034000E-7	8.138986E-3
1.034500E-7	8.234920E-3
1.035000E-7	8.267469E-3
1.035500E-7	8.216076E-3
1.036000E-7	8.145838E-3
1.036500E-7	8.084166E-3
1.037000E-7	7.984806E-3
1.037500E-7	7.856323E-3
1.038000E-7	7.774093E-3
1.038500E-7	7.748397E-3
1.039000E-7	7.751823E-3
1.039500E-7	7.806642E-3
1.040000E-7	7.936839E-3
1.040500E-7	8.125281E-3
1.041000E-7	8.341133E-3
1.041500E-7	8.546706E-3
1.042000E-7	8.707738E-3
1.042500E-7	8.825943E-3
1.043000E-7	8.904746E-3
1.043500E-7	8.915024E-3
1.044000E-7	8.851639E-3
1.044500E-7	8.759131E-3
1.045000E-7	8.654632E-3
1.045500E-7	8.515870E-3
1.046000E-7	8.377108E-3
1.046500E-7	8.284600E-3
1.047000E-7	8.233207E-3
1.047500E-7	8.185240E-3
1.048000E-7	8.120141E-3
1.048500E-7	8.058469E-3
1.049000E-7	8.007076E-3
1.049500E-7	7.941978E-3
1.050000E-7	7.830626E-3
1.050500E-7	7.700429E-3
1.051000E-7	7.578799E-3
1.051500E-7	7.436611E-3
1.052000E-7	7.260160E-3
1.052500E-7	7.088849E-3
1.053000E-7	6.953514E-3
1.053500E-7	6.843874E-3
1.054000E-7	6.766785E-3
1.054500E-7	6.756506E-3
1.055000E-7	6.804473E-3
1.055500E-7	6.878137E-3
1.056000E-7	6.967218E-3
1.056500E-7	7.064866E-3
1.057000E-7	7.159087E-3
1.057500E-7	7.255021E-3
1.058000E-7	7.349242E-3
1.058500E-7	7.422906E-3
1.059000E-7	7.460594E-3
1.059500E-7	7.460594E-3
1.060000E-7	7.414340E-3
1.060500E-7	7.309840E-3
1.061000E-7	7.174505E-3
1.061500E-7	7.032317E-3
1.062000E-7	6.886702E-3
1.062500E-7	6.741088E-3
1.063000E-7	6.617744E-3
1.063500E-7	6.550933E-3
1.064000E-7	6.535515E-3
1.064500E-7	6.557785E-3
1.065000E-7	6.622883E-3
1.065500E-7	6.732522E-3
1.066000E-7	6.854153E-3
1.066500E-7	6.956940E-3
1.067000E-7	7.044308E-3
1.067500E-7	7.121398E-3
1.068000E-7	7.174505E-3
1.068500E-7	7.181357E-3
1.069000E-7	7.143669E-3
1.069500E-7	7.087136E-3
1.070000E-7	7.008333E-3
1.070500E-7	6.912399E-3
1.071000E-7	6.830170E-3
1.071500E-7	6.801047E-3
1.072000E-7	6.821604E-3
1.072500E-7	6.876424E-3
1.073000E-7	6.977497E-3
1.073500E-7	7.124825E-3
1.074000E-7	7.294422E-3
1.074500E-7	7.443463E-3
1.075000E-7	7.553102E-3
1.075500E-7	7.631905E-3
1.076000E-7	7.676446E-3
1.076500E-7	7.662741E-3
1.077000E-7	7.594217E-3
1.077500E-7	7.501709E-3
1.078000E-7	7.395496E-3
1.078500E-7	7.267013E-3
1.079000E-7	7.167652E-3
1.079500E-7	7.109407E-3
1.080000E-7	7.054587E-3
1.080500E-7	6.987776E-3
1.081000E-7	6.931243E-3
1.081500E-7	6.884989E-3
1.082000E-7	6.811325E-3
1.082500E-7	6.703399E-3
1.083000E-7	6.573203E-3
1.083500E-7	6.419023E-3
1.084000E-7	6.245999E-3
1.084500E-7	6.090106E-3
1.085000E-7	5.982180E-3
1.085500E-7	5.917082E-3
1.086000E-7	5.903377E-3
1.086500E-7	5.961623E-3
1.087000E-7	6.098672E-3
1.087500E-7	6.285401E-3
1.088000E-7	6.504679E-3
1.088500E-7	6.747940E-3
1.089000E-7	6.972358E-3
1.089500E-7	7.141956E-3
1.090000E-7	7.279004E-3
1.090500E-7	7.410914E-3
1.091000E-7	7.515414E-3
1.091500E-7	7.573659E-3
1.092000E-7	7.597643E-3
1.092500E-7	7.602782E-3
1.093000E-7	7.609635E-3
1.093500E-7	7.619913E-3
1.094000E-7	7.613061E-3
1.094500E-7	7.577086E-3
1.095000E-7	7.534258E-3
1.095500E-7	7.513701E-3
1.096000E-7	7.501709E-3
1.096500E-7	7.472586E-3
1.097000E-7	7.436611E-3
1.097500E-7	7.412627E-3
1.098000E-7	7.386930E-3
1.098500E-7	7.337250E-3
1.099000E-7	7.282431E-3
1.099500E-7	7.248168E-3
1.100000E-7	7.219046E-3
1.100500E-7	7.176218E-3
1.101000E-7	7.126538E-3
1.101500E-7	7.068292E-3
1.102000E-7	7.006620E-3
1.102500E-7	6.950087E-3
1.103000E-7	6.888415E-3
1.103500E-7	6.794194E-3
1.104000E-7	6.687981E-3
1.104500E-7	6.609178E-3
1.105000E-7	6.535515E-3
1.105500E-7	6.460138E-3
1.106000E-7	6.425876E-3
1.106500E-7	6.441294E-3
1.107000E-7	6.480695E-3
1.107500E-7	6.547506E-3
1.108000E-7	6.665711E-3
1.108500E-7	6.814752E-3
1.109000E-7	6.946661E-3
1.109500E-7	7.064866E-3
1.110000E-7	7.184783E-3
1.110500E-7	7.287570E-3
1.111000E-7	7.366373E-3
1.111500E-7	7.433184E-3
1.112000E-7	7.496569E-3
1.112500E-7	7.529118E-3
1.113000E-7	7.544536E-3
1.113500E-7	7.559954E-3
1.114000E-7	7.559954E-3
1.114500E-7	7.542823E-3
1.115000E-7	7.546250E-3
1.115500E-7	7.565094E-3
1.116000E-7	7.546250E-3
1.116500E-7	7.501709E-3
1.117000E-7	7.479438E-3
1.117500E-7	7.434897E-3
1.118000E-7	7.330398E-3
1.118500E-7	7.224185E-3
1.119000E-7	7.121398E-3
1.119500E-7	6.979210E-3
1.120000E-7	6.826743E-3
1.120500E-7	6.694834E-3
1.121000E-7	6.561211E-3
1.121500E-7	6.419023E-3
1.122000E-7	6.312810E-3
1.122500E-7	6.251138E-3
1.123000E-7	6.228868E-3
1.123500E-7	6.251138E-3
1.124000E-7	6.307671E-3
1.124500E-7	6.384761E-3
1.125000E-7	6.513244E-3
1.125500E-7	6.669137E-3
1.126000E-7	6.799334E-3
1.126500E-7	6.915825E-3
1.127000E-7	7.044308E-3
1.127500E-7	7.141956E-3
1.128000E-7	7.188210E-3
1.128500E-7	7.189923E-3
1.129000E-7	7.138529E-3
1.129500E-7	7.042595E-3
1.130000E-7	6.946661E-3
1.130500E-7	6.855866E-3
1.131000E-7	6.732522E-3
1.131500E-7	6.586908E-3
1.132000E-7	6.458425E-3
1.132500E-7	6.355638E-3
1.133000E-7	6.264843E-3
1.133500E-7	6.192893E-3
1.134000E-7	6.170622E-3
1.134500E-7	6.199745E-3
1.135000E-7	6.230581E-3
1.135500E-7	6.245999E-3
1.136000E-7	6.285401E-3
1.136500E-7	6.352212E-3
1.137000E-7	6.398466E-3
1.137500E-7	6.425876E-3
1.138000E-7	6.458425E-3
1.138500E-7	6.475556E-3
1.139000E-7	6.473843E-3
1.139500E-7	6.477269E-3
1.140000E-7	6.497826E-3
1.140500E-7	6.514957E-3
1.141000E-7	6.525236E-3
1.141500E-7	6.542367E-3
1.142000E-7	6.581769E-3
1.142500E-7	6.657145E-3
1.143000E-7	6.763358E-3
1.143500E-7	6.874710E-3
1.144000E-7	6.967218E-3
1.144500E-7	7.051161E-3
1.145000E-7	7.136816E-3
1.145500E-7	7.198488E-3
1.146000E-7	7.205341E-3
1.146500E-7	7.189923E-3
1.147000E-7	7.174505E-3
1.147500E-7	7.133390E-3
1.148000E-7	7.039169E-3
1.148500E-7	6.903833E-3
1.149000E-7	6.746227E-3
1.149500E-7	6.588621E-3
1.150000E-7	6.441294E-3
1.150500E-7	6.278548E-3
1.151000E-7	6.110663E-3
1.151500E-7	5.975328E-3
1.152000E-7	5.872541E-3
1.152500E-7	5.783459E-3
1.153000E-7	5.749197E-3
1.153500E-7	5.810869E-3
1.154000E-7	5.927361E-3
1.154500E-7	6.066123E-3
1.155000E-7	6.247712E-3
1.155500E-7	6.478982E-3
1.156000E-7	6.720531E-3
1.156500E-7	6.943235E-3
1.157000E-7	7.124825E-3
1.157500E-7	7.251595E-3
1.158000E-7	7.314980E-3
1.158500E-7	7.313267E-3
1.159000E-7	7.280718E-3
1.159500E-7	7.261873E-3
1.160000E-7	7.243029E-3
1.160500E-7	7.213906E-3
1.161000E-7	7.213906E-3
1.161500E-7	7.256734E-3
1.162000E-7	7.320119E-3
1.162500E-7	7.383504E-3
1.163000E-7	7.436611E-3
1.163500E-7	7.476012E-3
1.164000E-7	7.508561E-3
1.164500E-7	7.529118E-3
1.165000E-7	7.498283E-3
1.165500E-7	7.417766E-3
1.166000E-7	7.321832E-3
1.166500E-7	7.203628E-3
1.167000E-7	7.052874E-3
1.167500E-7	6.898694E-3
1.168000E-7	6.780489E-3
1.168500E-7	6.677703E-3
1.169000E-7	6.557785E-3
1.169500E-7	6.420736E-3
1.170000E-7	6.283688E-3
1.170500E-7	6.138073E-3
1.171000E-7	5.982180E-3
1.171500E-7	5.850271E-3
1.172000E-7	5.762902E-3
1.172500E-7	5.680673E-3
1.173000E-7	5.596730E-3
1.173500E-7	5.576173E-3
1.174000E-7	5.632706E-3
1.174500E-7	5.728640E-3
1.175000E-7	5.867402E-3
1.175500E-7	6.052418E-3
1.176000E-7	6.251138E-3
1.176500E-7	6.434441E-3
1.177000E-7	6.586908E-3
1.177500E-7	6.681129E-3
1.178000E-7	6.718817E-3
1.178500E-7	6.741088E-3
1.179000E-7	6.756506E-3
1.179500E-7	6.732522E-3
1.180000E-7	6.667424E-3
1.180500E-7	6.595474E-3
1.181000E-7	6.533802E-3
1.181500E-7	6.448146E-3
1.182000E-7	6.326515E-3
1.182500E-7	6.201458E-3
1.183000E-7	6.083254E-3
1.183500E-7	5.961623E-3
1.184000E-7	5.845131E-3
1.184500E-7	5.761189E-3
1.185000E-7	5.692665E-3
1.185500E-7	5.617288E-3
1.186000E-7	5.552190E-3
1.186500E-7	5.505936E-3
1.187000E-7	5.475100E-3
1.187500E-7	5.461395E-3
1.188000E-7	5.464821E-3
1.188500E-7	5.468247E-3
1.189000E-7	5.487091E-3
1.189500E-7	5.523067E-3
1.190000E-7	5.562468E-3
1.190500E-7	5.629279E-3
1.191000E-7	5.752623E-3
1.191500E-7	5.920508E-3
1.192000E-7	6.102098E-3
1.192500E-7	6.280261E-3
1.193000E-7	6.453285E-3
1.193500E-7	6.612605E-3
1.194000E-7	6.734235E-3
1.194500E-7	6.806186E-3
1.195000E-7	6.843874E-3
1.195500E-7	6.861006E-3
1.196000E-7	6.814752E-3
1.196500E-7	6.689695E-3
1.197000E-7	6.530375E-3
1.197500E-7	6.367630E-3
1.198000E-7	6.172335E-3
1.198500E-7	5.953057E-3
1.199000E-7	5.766328E-3
1.199500E-7	5.637845E-3
1.200000E-7	5.567608E-3
1.200500E-7	5.543624E-3
1.201000E-7	5.572747E-3
1.201500E-7	5.644697E-3
1.202000E-7	5.756050E-3
1.202500E-7	5.903377E-3
1.203000E-7	6.083254E-3
1.203500E-7	6.259704E-3
1.204000E-7	6.408745E-3
1.204500E-7	6.532088E-3
1.205000E-7	6.616031E-3
1.205500E-7	6.662285E-3
1.206000E-7	6.691408E-3
1.206500E-7	6.698260E-3
1.207000E-7	6.665711E-3
1.207500E-7	6.626310E-3
1.208000E-7	6.598900E-3
1.208500E-7	6.561211E-3
1.209000E-7	6.513244E-3
1.209500E-7	6.468703E-3
1.210000E-7	6.437867E-3
1.210500E-7	6.415597E-3
1.211000E-7	6.407031E-3
1.211500E-7	6.386474E-3
1.212000E-7	6.353925E-3
1.212500E-7	6.328228E-3
1.213000E-7	6.309384E-3
1.213500E-7	6.281974E-3
1.214000E-7	6.239147E-3
1.214500E-7	6.182614E-3
1.215000E-7	6.119229E-3
1.215500E-7	6.071262E-3
1.216000E-7	6.016442E-3
1.216500E-7	5.953057E-3
1.217000E-7	5.898238E-3
1.217500E-7	5.886246E-3
1.218000E-7	5.908516E-3
1.218500E-7	5.946205E-3
1.219000E-7	5.977041E-3
1.219500E-7	6.018155E-3
1.220000E-7	6.083254E-3
1.220500E-7	6.158630E-3
1.221000E-7	6.204884E-3
1.221500E-7	6.223729E-3
1.222000E-7	6.235720E-3
1.222500E-7	6.222016E-3
1.223000E-7	6.179188E-3
1.223500E-7	6.150065E-3
1.224000E-7	6.127795E-3
1.224500E-7	6.076401E-3
1.225000E-7	6.002737E-3
1.225500E-7	5.961623E-3
1.226000E-7	5.953057E-3
1.226500E-7	5.927361E-3
1.227000E-7	5.872541E-3
1.227500E-7	5.838279E-3
1.228000E-7	5.846844E-3
1.228500E-7	5.850271E-3
1.229000E-7	5.822861E-3
1.229500E-7	5.804017E-3
1.230000E-7	5.802304E-3
1.230500E-7	5.792025E-3
1.231000E-7	5.759476E-3
1.231500E-7	5.702943E-3
1.232000E-7	5.636132E-3
1.232500E-7	5.589878E-3
1.233000E-7	5.576173E-3
1.233500E-7	5.574460E-3
1.234000E-7	5.572747E-3
1.234500E-7	5.584739E-3
1.235000E-7	5.603583E-3
1.235500E-7	5.634419E-3
1.236000E-7	5.706369E-3
1.236500E-7	5.804017E-3
1.237000E-7	5.884533E-3
1.237500E-7	5.934213E-3
1.238000E-7	5.975328E-3
1.238500E-7	6.038713E-3
1.239000E-7	6.134647E-3
1.239500E-7	6.227155E-3
1.240000E-7	6.305958E-3
1.240500E-7	6.400179E-3
1.241000E-7	6.494400E-3
1.241500E-7	6.530375E-3
1.242000E-7	6.511531E-3
1.242500E-7	6.492687E-3
1.243000E-7	6.478982E-3
1.243500E-7	6.432728E-3
1.244000E-7	6.355638E-3
1.244500E-7	6.281974E-3
1.245000E-7	6.203171E-3
1.245500E-7	6.090106E-3
1.246000E-7	5.961623E-3
1.246500E-7	5.875967E-3
1.247000E-7	5.836566E-3
1.247500E-7	5.800590E-3
1.248000E-7	5.769755E-3
1.248500E-7	5.774894E-3
1.249000E-7	5.800590E-3
1.249500E-7	5.816008E-3
1.250000E-7	5.838279E-3
1.250500E-7	5.870828E-3
1.251000E-7	5.879394E-3
1.251500E-7	5.860549E-3
1.252000E-7	5.851984E-3
1.252500E-7	5.862262E-3
1.253000E-7	5.865689E-3
1.253500E-7	5.858836E-3
1.254000E-7	5.877680E-3
1.254500E-7	5.937639E-3
1.255000E-7	6.006164E-3
1.255500E-7	6.060983E-3
1.256000E-7	6.119229E-3
1.256500E-7	6.189466E-3
1.257000E-7	6.245999E-3
1.257500E-7	6.285401E-3
1.258000E-7	6.353925E-3
1.258500E-7	6.465277E-3
1.259000E-7	6.574916E-3
1.259500E-7	6.655432E-3
1.260000E-7	6.725670E-3
1.260500E-7	6.783916E-3
1.261000E-7	6.792481E-3
1.261500E-7	6.756506E-3
1.262000E-7	6.696547E-3
1.262500E-7	6.590334E-3
1.263000E-7	6.429302E-3
1.263500E-7	6.257991E-3
1.264000E-7	6.100385E-3
1.264500E-7	5.906803E-3
1.265000E-7	5.689238E-3
1.265500E-7	5.502509E-3
1.266000E-7	5.350043E-3
1.266500E-7	5.190723E-3
1.267000E-7	5.058814E-3
1.267500E-7	4.995429E-3
1.268000E-7	4.983437E-3
1.268500E-7	5.007421E-3
1.269000E-7	5.075945E-3
1.269500E-7	5.177018E-3
1.270000E-7	5.283231E-3
1.270500E-7	5.377452E-3
1.271000E-7	5.452829E-3
1.271500E-7	5.521354E-3
1.272000E-7	5.593304E-3
1.272500E-7	5.651550E-3
1.273000E-7	5.668681E-3
1.273500E-7	5.673820E-3
1.274000E-7	5.680673E-3
1.274500E-7	5.663542E-3
1.275000E-7	5.637845E-3
1.275500E-7	5.636132E-3
1.276000E-7	5.642984E-3
1.276500E-7	5.648124E-3
1.277000E-7	5.687525E-3
1.277500E-7	5.754337E-3
1.278000E-7	5.828000E-3
1.278500E-7	5.906803E-3
1.279000E-7	5.985606E-3
1.279500E-7	6.040426E-3
1.280000E-7	6.067836E-3
1.280500E-7	6.067836E-3
1.281000E-7	6.026721E-3
1.281500E-7	5.953057E-3
1.282000E-7	5.877680E-3
1.282500E-7	5.802304E-3
1.283000E-7	5.718361E-3
1.283500E-7	5.644697E-3
1.284000E-7	5.600157E-3
1.284500E-7	5.598444E-3
1.285000E-7	5.642984E-3
1.285500E-7	5.692665E-3
1.286000E-7	5.726927E-3
1.286500E-7	5.797164E-3
1.287000E-7	5.918795E-3
1.287500E-7	6.028434E-3
1.288000E-7	6.066123E-3
1.288500E-7	6.055844E-3
1.289000E-7	6.038713E-3
1.289500E-7	6.038713E-3
1.290000E-7	6.030147E-3
1.290500E-7	6.006164E-3
1.291000E-7	5.997598E-3
1.291500E-7	6.019869E-3
1.292000E-7	6.033573E-3
1.292500E-7	6.023295E-3
1.293000E-7	6.016442E-3
1.293500E-7	6.013016E-3
1.294000E-7	5.983893E-3
1.294500E-7	5.934213E-3
1.295000E-7	5.875967E-3
1.295500E-7	5.786886E-3
1.296000E-7	5.666968E-3
1.296500E-7	5.531632E-3
1.297000E-7	5.379165E-3
1.297500E-7	5.226699E-3
1.298000E-7	5.110207E-3
1.298500E-7	5.027978E-3
1.299000E-7	4.966306E-3
1.299500E-7	4.940609E-3
1.300000E-7	4.961167E-3
1.300500E-7	4.997142E-3
1.301000E-7	5.043396E-3
1.301500E-7	5.111920E-3
1.302000E-7	5.161600E-3
1.302500E-7	5.170166E-3
1.303000E-7	5.168453E-3
1.303500E-7	5.170166E-3
1.304000E-7	5.154748E-3
1.304500E-7	5.129051E-3
1.305000E-7	5.137617E-3
1.305500E-7	5.180445E-3
1.306000E-7	5.230125E-3
1.306500E-7	5.281518E-3
1.307000E-7	5.338051E-3
1.307500E-7	5.380879E-3
1.308000E-7	5.411715E-3
1.308500E-7	5.463108E-3
1.309000E-7	5.548763E-3
1.309500E-7	5.646411E-3
1.310000E-7	5.709796E-3
1.310500E-7	5.738919E-3
1.311000E-7	5.757763E-3
1.311500E-7	5.773181E-3
1.312000E-7	5.793738E-3
1.312500E-7	5.822861E-3
1.313000E-7	5.867402E-3
1.313500E-7	5.910230E-3
1.314000E-7	5.953057E-3
1.314500E-7	6.004451E-3
1.315000E-7	6.047278E-3
1.315500E-7	6.069549E-3
1.316000E-7	6.115803E-3
1.316500E-7	6.191180E-3
1.317000E-7	6.254565E-3
1.317500E-7	6.300819E-3
1.318000E-7	6.359064E-3
1.318500E-7	6.403605E-3
1.319000E-7	6.401892E-3
1.319500E-7	6.367630E-3
1.320000E-7	6.305958E-3
1.320500E-7	6.208311E-3
1.321000E-7	6.102098E-3
1.321500E-7	6.011303E-3
1.322000E-7	5.908516E-3
1.322500E-7	5.788599E-3
1.323000E-7	5.663542E-3
1.323500E-7	5.536772E-3
1.324000E-7	5.437411E-3
1.324500E-7	5.394583E-3
1.325000E-7	5.396297E-3
1.325500E-7	5.439124E-3
1.326000E-7	5.545337E-3
1.326500E-7	5.682386E-3
1.327000E-7	5.809156E-3
1.327500E-7	5.939352E-3
1.328000E-7	6.069549E-3
1.328500E-7	6.170622E-3
1.329000E-7	6.240860E-3
1.329500E-7	6.280261E-3
1.330000E-7	6.256278E-3
1.330500E-7	6.189466E-3
1.331000E-7	6.105524E-3
1.331500E-7	5.978754E-3
1.332000E-7	5.807443E-3
1.332500E-7	5.654976E-3
1.333000E-7	5.571034E-3
1.333500E-7	5.550476E-3
1.334000E-7	5.557329E-3
1.334500E-7	5.581312E-3
1.335000E-7	5.608722E-3
1.335500E-7	5.605296E-3
1.336000E-7	5.562468E-3
1.336500E-7	5.519640E-3
1.337000E-7	5.500796E-3
1.337500E-7	5.463108E-3
1.338000E-7	5.363747E-3
1.338500E-7	5.231838E-3
1.339000E-7	5.091363E-3
1.339500E-7	4.959453E-3
1.340000E-7	4.841249E-3
1.340500E-7	4.750454E-3
1.341000E-7	4.688782E-3
1.341500E-7	4.676790E-3
1.342000E-7	4.714479E-3
1.342500E-7	4.769298E-3
1.343000E-7	4.830970E-3
1.343500E-7	4.904634E-3
1.344000E-7	4.988576E-3
1.344500E-7	5.069093E-3
1.345000E-7	5.139330E-3
1.345500E-7	5.206141E-3
1.346000E-7	5.286657E-3
1.346500E-7	5.387731E-3
1.347000E-7	5.495657E-3
1.347500E-7	5.584739E-3
1.348000E-7	5.636132E-3
1.348500E-7	5.666968E-3
1.349000E-7	5.687525E-3
1.349500E-7	5.663542E-3
1.350000E-7	5.588165E-3
1.350500E-7	5.490518E-3
1.351000E-7	5.384305E-3
1.351500E-7	5.243830E-3
1.352000E-7	5.093076E-3
1.352500E-7	4.971445E-3
1.353000E-7	4.873798E-3
1.353500E-7	4.784716E-3
1.354000E-7	4.714479E-3
1.354500E-7	4.676790E-3
1.355000E-7	4.690495E-3
1.355500E-7	4.762446E-3
1.356000E-7	4.875511E-3
1.356500E-7	5.002281E-3
1.357000E-7	5.139330E-3
1.357500E-7	5.260961E-3
1.358000E-7	5.334625E-3
1.358500E-7	5.348329E-3
1.359000E-7	5.296936E-3
1.359500E-7	5.182158E-3
1.360000E-7	5.039970E-3
1.360500E-7	4.906347E-3
1.361000E-7	4.788142E-3
1.361500E-7	4.728184E-3
1.362000E-7	4.748741E-3
1.362500E-7	4.815552E-3
1.363000E-7	4.909773E-3
1.363500E-7	5.070806E-3
1.364000E-7	5.267813E-3
1.364500E-7	5.452829E-3
1.365000E-7	5.622427E-3
1.365500E-7	5.780033E-3
1.366000E-7	5.874254E-3
1.366500E-7	5.911943E-3
1.367000E-7	5.923934E-3
1.367500E-7	5.906803E-3
1.368000E-7	5.838279E-3
1.368500E-7	5.738919E-3
1.369000E-7	5.642984E-3
1.369500E-7	5.540198E-3
1.370000E-7	5.413428E-3
1.370500E-7	5.286657E-3
1.371000E-7	5.182158E-3
1.371500E-7	5.096502E-3
1.372000E-7	5.021125E-3
1.372500E-7	4.962880E-3
1.373000E-7	4.926904E-3
1.373500E-7	4.908060E-3
1.374000E-7	4.913200E-3
1.374500E-7	4.944035E-3
1.375000E-7	4.974871E-3
1.375500E-7	4.993716E-3
1.376000E-7	5.012560E-3
1.376500E-7	5.031404E-3
1.377000E-7	5.012560E-3
1.377500E-7	4.950888E-3
1.378000E-7	4.894355E-3
1.378500E-7	4.849814E-3
1.379000E-7	4.774438E-3
1.379500E-7	4.681930E-3
1.380000E-7	4.637389E-3
1.380500E-7	4.642528E-3
1.381000E-7	4.673364E-3
1.381500E-7	4.759020E-3
1.382000E-7	4.932044E-3
1.382500E-7	5.142756E-3
1.383000E-7	5.379165E-3
1.383500E-7	5.648124E-3
1.384000E-7	5.898238E-3
1.384500E-7	6.066123E-3
1.385000E-7	6.170622E-3
1.385500E-7	6.244286E-3
1.386000E-7	6.247712E-3
1.386500E-7	6.139786E-3
1.387000E-7	5.930787E-3
1.387500E-7	5.658402E-3
1.388000E-7	5.362034E-3
1.388500E-7	5.057101E-3
1.389000E-7	4.753880E-3
1.389500E-7	4.481496E-3
1.390000E-7	4.269070E-3
1.390500E-7	4.135448E-3
1.391000E-7	4.073776E-3
1.391500E-7	4.082341E-3
1.392000E-7	4.152579E-3
1.392500E-7	4.274209E-3
1.393000E-7	4.445520E-3
1.393500E-7	4.639102E-3
1.394000E-7	4.824118E-3
1.394500E-7	5.000568E-3
1.395000E-7	5.154748E-3
1.395500E-7	5.262674E-3
1.396000E-7	5.324346E-3
1.396500E-7	5.351756E-3
1.397000E-7	5.336338E-3
1.397500E-7	5.295223E-3
1.398000E-7	5.290084E-3
1.398500E-7	5.322633E-3
1.399000E-7	5.338051E-3
1.399500E-7	5.339764E-3
1.400000E-7	5.353469E-3
1.400500E-7	5.358608E-3
1.401000E-7	5.327772E-3
1.401500E-7	5.264387E-3
1.402000E-7	5.173592E-3
1.402500E-7	5.077658E-3
1.403000E-7	5.010847E-3
1.403500E-7	4.956027E-3
1.404000E-7	4.887503E-3
1.404500E-7	4.830970E-3
1.405000E-7	4.820692E-3
1.405500E-7	4.830970E-3
1.406000E-7	4.860093E-3
1.406500E-7	4.923478E-3
1.407000E-7	4.985150E-3
1.407500E-7	5.009134E-3
1.408000E-7	5.022839E-3
1.408500E-7	5.046822E-3
1.409000E-7	5.041683E-3
1.409500E-7	5.010847E-3
1.410000E-7	4.998855E-3
1.410500E-7	4.995429E-3
1.411000E-7	4.985150E-3
1.411500E-7	5.002281E-3
1.412000E-7	5.070806E-3
1.412500E-7	5.156461E-3
1.413000E-7	5.242117E-3
1.413500E-7	5.350043E-3
1.414000E-7	5.469960E-3
1.414500E-7	5.559042E-3
1.415000E-7	5.615575E-3
1.415500E-7	5.649837E-3
1.416000E-7	5.649837E-3
1.416500E-7	5.613862E-3
1.417000E-7	5.572747E-3
1.417500E-7	5.526493E-3
1.418000E-7	5.481952E-3
1.418500E-7	5.459682E-3
1.419000E-7	5.468247E-3
1.419500E-7	5.483665E-3
1.420000E-7	5.487091E-3
1.420500E-7	5.497370E-3
1.421000E-7	5.512788E-3
1.421500E-7	5.502509E-3
1.422000E-7	5.430559E-3
1.422500E-7	5.312354E-3
1.423000E-7	5.195863E-3
1.423500E-7	5.069093E-3
1.424000E-7	4.892642E-3
1.424500E-7	4.700774E-3
1.425000E-7	4.568864E-3
1.425500E-7	4.490061E-3
1.426000E-7	4.440381E-3
1.426500E-7	4.438668E-3
1.427000E-7	4.486635E-3
1.427500E-7	4.548307E-3
1.428000E-7	4.608266E-3
1.428500E-7	4.673364E-3
1.429000E-7	4.740175E-3
1.429500E-7	4.784716E-3
1.430000E-7	4.784716E-3
1.430500E-7	4.729897E-3
1.431000E-7	4.654520E-3
1.431500E-7	4.591135E-3
1.432000E-7	4.522610E-3
1.432500E-7	4.459225E-3
1.433000E-7	4.431816E-3
1.433500E-7	4.457512E-3
1.434000E-7	4.508906E-3
1.434500E-7	4.568864E-3
1.435000E-7	4.635676E-3
1.435500E-7	4.716192E-3
1.436000E-7	4.830970E-3
1.436500E-7	4.952601E-3
1.437000E-7	5.045109E-3
1.437500E-7	5.098215E-3
1.438000E-7	5.115346E-3
1.438500E-7	5.089650E-3
1.439000E-7	5.012560E-3
1.439500E-7	4.899495E-3
1.440000E-7	4.788142E-3
1.440500E-7	4.704200E-3
1.441000E-7	4.621971E-3
1.441500E-7	4.546594E-3
1.442000E-7	4.519184E-3
1.442500E-7	4.536315E-3
1.443000E-7	4.544881E-3
1.443500E-7	4.562012E-3
1.444000E-7	4.620258E-3
1.444500E-7	4.681930E-3
1.445000E-7	4.729897E-3
1.445500E-7	4.786429E-3
1.446000E-7	4.825831E-3
1.446500E-7	4.822405E-3
1.447000E-7	4.810413E-3
1.447500E-7	4.829257E-3
1.448000E-7	4.873798E-3
1.448500E-7	4.947462E-3
1.449000E-7	5.039970E-3
1.449500E-7	5.130764E-3
1.450000E-7	5.230125E-3
1.450500E-7	5.343190E-3
1.451000E-7	5.425419E-3
1.451500E-7	5.447690E-3
1.452000E-7	5.439124E-3
1.452500E-7	5.416854E-3
1.453000E-7	5.374026E-3
1.453500E-7	5.305502E-3
1.454000E-7	5.209568E-3
1.454500E-7	5.101642E-3
1.455000E-7	5.015986E-3
1.455500E-7	4.947462E-3
1.456000E-7	4.868659E-3
1.456500E-7	4.757306E-3
1.457000E-7	4.652807E-3
1.457500E-7	4.608266E-3
1.458000E-7	4.621971E-3
1.458500E-7	4.656233E-3
1.459000E-7	4.702487E-3
1.459500E-7	4.789856E-3
1.460000E-7	4.914913E-3
1.460500E-7	5.060527E-3
1.461000E-7	5.216420E-3
1.461500E-7	5.382592E-3
1.462000E-7	5.543624E-3
1.462500E-7	5.673820E-3
1.463000E-7	5.749197E-3
1.463500E-7	5.790312E-3
1.464000E-7	5.809156E-3
1.464500E-7	5.780033E-3
1.465000E-7	5.689238E-3
1.465500E-7	5.562468E-3
1.466000E-7	5.399723E-3
1.466500E-7	5.190723E-3
1.467000E-7	4.954314E-3
1.467500E-7	4.699061E-3
1.468000E-7	4.423250E-3
1.468500E-7	4.138874E-3
1.469000E-7	3.869916E-3
1.469500E-7	3.599244E-3
1.470000E-7	3.338851E-3
1.470500E-7	3.148696E-3
1.471000E-7	3.061328E-3
1.471500E-7	3.054475E-3
1.472000E-7	3.111008E-3
1.472500E-7	3.254909E-3
1.473000E-7	3.493031E-3
1.473500E-7	3.799678E-3
1.474000E-7	4.125169E-3
1.474500E-7	4.431816E-3
1.475000E-7	4.707626E-3
1.475500E-7	4.916626E-3
1.476000E-7	5.026265E-3
1.476500E-7	5.053675E-3
1.477000E-7	5.022839E-3
1.477500E-7	4.918339E-3
1.478000E-7	4.762446E-3
1.478500E-7	4.603127E-3
1.479000E-7	4.443807E-3
1.479500E-7	4.277636E-3
1.480000E-7	4.161144E-3
1.480500E-7	4.130308E-3
1.481000E-7	4.147439E-3
1.481500E-7	4.197120E-3
1.482000E-7	4.306759E-3
1.482500E-7	4.467791E-3
1.483000E-7	4.645954E-3
1.483500E-7	4.839536E-3
1.484000E-7	5.048535E-3
1.484500E-7	5.260961E-3
1.485000E-7	5.454542E-3
1.485500E-7	5.613862E-3
1.486000E-7	5.728640E-3
1.486500E-7	5.805730E-3
1.487000E-7	5.839992E-3
1.487500E-7	5.819435E-3
1.488000E-7	5.738919E-3
1.488500E-7	5.634419E-3
1.489000E-7	5.517927E-3
1.489500E-7	5.380879E-3
1.490000E-7	5.238690E-3
1.490500E-7	5.113633E-3
1.491000E-7	4.997142E-3
1.491500E-7	4.875511E-3
1.492000E-7	4.796708E-3
1.492500E-7	4.786429E-3
1.493000E-7	4.810413E-3
1.493500E-7	4.844675E-3
1.494000E-7	4.896068E-3
1.494500E-7	4.947462E-3
1.495000E-7	4.954314E-3
1.495500E-7	4.932044E-3
1.496000E-7	4.901208E-3
1.496500E-7	4.849814E-3
1.497000E-7	4.783003E-3
1.497500E-7	4.735036E-3
1.498000E-7	4.716192E-3
1.498500E-7	4.704200E-3
1.499000E-7	4.688782E-3
1.499500E-7	4.675077E-3
1.500000E-7	4.676790E-3
1.500500E-7	4.705913E-3
1.501000E-7	4.769298E-3
1.501500E-7	4.861806E-3
1.502000E-7	4.961167E-3
1.502500E-7	5.038257E-3
1.503000E-7	5.065666E-3
1.503500E-7	5.039970E-3
1.504000E-7	4.964593E-3
1.504500E-7	4.860093E-3
1.505000E-7	4.724757E-3
1.505500E-7	4.570578E-3
1.506000E-7	4.412971E-3
1.506500E-7	4.275923E-3
1.507000E-7	4.162857E-3
1.507500E-7	4.080628E-3
1.508000E-7	4.039513E-3
1.508500E-7	4.037800E-3
1.509000E-7	4.084054E-3
1.509500E-7	4.195406E-3
1.510000E-7	4.354726E-3
1.510500E-7	4.503766E-3
1.511000E-7	4.618545E-3
1.511500E-7	4.711053E-3
1.512000E-7	4.772724E-3
1.512500E-7	4.771011E-3
1.513000E-7	4.699061E-3
1.513500E-7	4.599700E-3
1.514000E-7	4.493488E-3
1.514500E-7	4.371857E-3
1.515000E-7	4.243373E-3
1.515500E-7	4.157718E-3
1.516000E-7	4.154292E-3
1.516500E-7	4.186841E-3
1.517000E-7	4.227956E-3
1.517500E-7	4.298193E-3
1.518000E-7	4.392414E-3
1.518500E-7	4.460938E-3
1.519000E-7	4.478070E-3
1.519500E-7	4.455799E-3
1.520000E-7	4.378709E-3
1.520500E-7	4.236521E-3
1.521000E-7	4.054931E-3
1.521500E-7	3.857924E-3
1.522000E-7	3.662629E-3
1.522500E-7	3.511876E-3
1.523000E-7	3.424507E-3
1.523500E-7	3.386818E-3
1.524000E-7	3.412515E-3
1.524500E-7	3.523867E-3
1.525000E-7	3.684900E-3
1.525500E-7	3.849358E-3
1.526000E-7	4.013817E-3
1.526500E-7	4.179988E-3
1.527000E-7	4.322177E-3
1.527500E-7	4.442094E-3
1.528000E-7	4.543168E-3
1.528500E-7	4.599700E-3
1.529000E-7	4.596274E-3
1.529500E-7	4.568864E-3
1.530000E-7	4.543168E-3
1.530500E-7	4.496914E-3
1.531000E-7	4.424963E-3
1.531500E-7	4.358152E-3
1.532000E-7	4.334168E-3
1.532500E-7	4.342734E-3
1.533000E-7	4.353013E-3
1.533500E-7	4.370144E-3
1.534000E-7	4.428389E-3
1.534500E-7	4.524324E-3
1.535000E-7	4.620258E-3
1.535500E-7	4.711053E-3
1.536000E-7	4.815552E-3
1.536500E-7	4.908060E-3
1.537000E-7	4.949175E-3
1.537500E-7	4.935470E-3
1.538000E-7	4.877224E-3
1.538500E-7	4.784716E-3
1.539000E-7	4.657946E-3
1.539500E-7	4.481496E-3
1.540000E-7	4.260505E-3
1.540500E-7	4.046366E-3
1.541000E-7	3.875055E-3
1.541500E-7	3.722588E-3
1.542000E-7	3.558129E-3
1.542500E-7	3.409089E-3
1.543000E-7	3.321720E-3
1.543500E-7	3.314868E-3
1.544000E-7	3.391958E-3
1.544500E-7	3.563269E-3
1.545000E-7	3.809957E-3
1.545500E-7	4.087480E-3
1.546000E-7	4.380422E-3
1.546500E-7	4.680217E-3
1.547000E-7	4.944035E-3
1.547500E-7	5.137617E-3
1.548000E-7	5.257535E-3
1.548500E-7	5.298649E-3
1.549000E-7	5.257535E-3
1.549500E-7	5.153035E-3
1.550000E-7	4.986863E-3
1.550500E-7	4.772724E-3
1.551000E-7	4.551733E-3
1.551500E-7	4.361578E-3
1.552000E-7	4.186841E-3
1.552500E-7	4.013817E-3
1.553000E-7	3.861350E-3
1.553500E-7	3.756850E-3
1.554000E-7	3.710596E-3
1.554500E-7	3.708883E-3
1.555000E-7	3.739719E-3
1.555500E-7	3.791112E-3
1.556000E-7	3.869916E-3
1.556500E-7	3.960710E-3
1.557000E-7	4.049792E-3
1.557500E-7	4.152579E-3
1.558000E-7	4.251939E-3
1.558500E-7	4.317037E-3
1.559000E-7	4.353013E-3
1.559500E-7	4.385562E-3
1.560000E-7	4.409545E-3
1.560500E-7	4.423250E-3
1.561000E-7	4.435242E-3
1.561500E-7	4.412971E-3
1.562000E-7	4.344447E-3
1.562500E-7	4.279349E-3
1.563000E-7	4.245087E-3
1.563500E-7	4.209111E-3
1.564000E-7	4.181702E-3
1.564500E-7	4.210824E-3
1.565000E-7	4.294767E-3
1.565500E-7	4.399267E-3
1.566000E-7	4.527750E-3
1.566500E-7	4.668225E-3
1.567000E-7	4.781290E-3
1.567500E-7	4.887503E-3
1.568000E-7	5.014273E-3
1.568500E-7	5.117060E-3
1.569000E-7	5.132478E-3
1.569500E-7	5.075945E-3
1.570000E-7	4.981724E-3
1.570500E-7	4.841249E-3
1.571000E-7	4.663085E-3
1.571500E-7	4.490061E-3
1.572000E-7	4.320463E-3
1.572500E-7	4.126882E-3
1.573000E-7	3.936727E-3
1.573500E-7	3.789399E-3
1.574000E-7	3.678047E-3
1.574500E-7	3.575261E-3
1.575000E-7	3.496458E-3
1.575500E-7	3.467335E-3
1.576000E-7	3.446777E-3
1.576500E-7	3.397097E-3
1.577000E-7	3.338851E-3
1.577500E-7	3.302876E-3
1.578000E-7	3.254909E-3
1.578500E-7	3.193237E-3
1.579000E-7	3.165827E-3
1.579500E-7	3.158975E-3
1.580000E-7	3.131565E-3
1.580500E-7	3.111008E-3
1.581000E-7	3.136704E-3
1.581500E-7	3.186385E-3
1.582000E-7	3.254909E-3
1.582500E-7	3.378253E-3
1.583000E-7	3.542711E-3
1.583500E-7	3.714023E-3
1.584000E-7	3.912743E-3
1.584500E-7	4.126882E-3
1.585000E-7	4.294767E-3
1.585500E-7	4.412971E-3
1.586000E-7	4.515758E-3
1.586500E-7	4.574004E-3
1.587000E-7	4.538028E-3
1.587500E-7	4.469504E-3
1.588000E-7	4.418111E-3
1.588500E-7	4.346160E-3
1.589000E-7	4.238234E-3
1.589500E-7	4.118316E-3
1.590000E-7	3.998399E-3
1.590500E-7	3.893899E-3
1.591000E-7	3.847645E-3
1.591500E-7	3.852784E-3
1.592000E-7	3.866489E-3
1.592500E-7	3.914456E-3
1.593000E-7	4.022382E-3
1.593500E-7	4.164570E-3
1.594000E-7	4.311898E-3
1.594500E-7	4.466078E-3
1.595000E-7	4.618545E-3
1.595500E-7	4.757306E-3
1.596000E-7	4.882364E-3
1.596500E-7	4.966306E-3
1.597000E-7	4.978298E-3
1.597500E-7	4.914913E-3
1.598000E-7	4.810413E-3
1.598500E-7	4.695635E-3
1.599000E-7	4.577430E-3
1.599500E-7	4.443807E-3
1.600000E-7	4.282775E-3
1.600500E-7	4.094333E-3
1.601000E-7	3.907604E-3
1.601500E-7	3.751711E-3
1.602000E-7	3.635219E-3
1.602500E-7	3.551277E-3
1.603000E-7	3.511876E-3
1.603500E-7	3.529007E-3
1.604000E-7	3.571834E-3
1.604500E-7	3.624941E-3
1.605000E-7	3.712309E-3
1.605500E-7	3.811670E-3
1.606000E-7	3.873342E-3
1.606500E-7	3.909317E-3
1.607000E-7	3.943579E-3
1.607500E-7	3.957284E-3
1.608000E-7	3.935014E-3
1.608500E-7	3.902465E-3
1.609000E-7	3.851071E-3
1.609500E-7	3.782547E-3
1.610000E-7	3.744858E-3
1.610500E-7	3.760276E-3
1.611000E-7	3.801391E-3
1.611500E-7	3.852784E-3
1.612000E-7	3.912743E-3
1.612500E-7	3.976128E-3
1.613000E-7	4.044653E-3
1.613500E-7	4.099472E-3
1.614000E-7	4.118316E-3
1.614500E-7	4.089194E-3
1.615000E-7	4.025809E-3
1.615500E-7	3.917883E-3
1.616000E-7	3.767129E-3
1.616500E-7	3.597531E-3
1.617000E-7	3.434786E-3
1.617500E-7	3.289171E-3
1.618000E-7	3.174393E-3
1.618500E-7	3.102442E-3
1.619000E-7	3.064754E-3
1.619500E-7	3.068180E-3
1.620000E-7	3.124713E-3
1.620500E-7	3.236065E-3
1.621000E-7	3.374827E-3
1.621500E-7	3.515302E-3
1.622000E-7	3.654064E-3
1.622500E-7	3.796252E-3
1.623000E-7	3.941866E-3
1.623500E-7	4.065210E-3
1.624000E-7	4.130308E-3
1.624500E-7	4.121743E-3
1.625000E-7	4.077202E-3
1.625500E-7	4.039513E-3
1.626000E-7	4.017243E-3
1.626500E-7	3.994973E-3
1.627000E-7	3.982981E-3
1.627500E-7	3.993259E-3
1.628000E-7	3.994973E-3
1.628500E-7	3.988120E-3
1.629000E-7	3.988120E-3
1.629500E-7	3.977841E-3
1.630000E-7	3.935014E-3
1.630500E-7	3.888760E-3
1.631000E-7	3.859637E-3
1.631500E-7	3.823662E-3
1.632000E-7	3.758563E-3
1.632500E-7	3.686613E-3
1.633000E-7	3.626654E-3
1.633500E-7	3.587252E-3
1.634000E-7	3.594105E-3
1.634500E-7	3.638646E-3
1.635000E-7	3.695178E-3
1.635500E-7	3.770555E-3
1.636000E-7	3.873342E-3
1.636500E-7	3.982981E-3
1.637000E-7	4.094333E-3
1.637500E-7	4.209111E-3
1.638000E-7	4.293054E-3
1.638500E-7	4.335881E-3
1.639000E-7	4.373570E-3
1.639500E-7	4.407832E-3
1.640000E-7	4.390701E-3
1.640500E-7	4.332455E-3
1.641000E-7	4.282775E-3
1.641500E-7	4.239947E-3
1.642000E-7	4.169710E-3
1.642500E-7	4.087480E-3
1.643000E-7	4.020669E-3
1.643500E-7	3.964137E-3
1.644000E-7	3.916169E-3
1.644500E-7	3.873342E-3
1.645000E-7	3.842506E-3
1.645500E-7	3.833940E-3
1.646000E-7	3.851071E-3
1.646500E-7	3.861350E-3
1.647000E-7	3.861350E-3
1.647500E-7	3.881907E-3
1.648000E-7	3.923022E-3
1.648500E-7	3.964137E-3
1.649000E-7	4.006964E-3
1.649500E-7	4.077202E-3
1.650000E-7	4.162857E-3
1.650500E-7	4.231382E-3
1.651000E-7	4.277636E-3
1.651500E-7	4.305045E-3
1.652000E-7	4.298193E-3
1.652500E-7	4.279349E-3
1.653000E-7	4.284488E-3
1.653500E-7	4.301619E-3
1.654000E-7	4.298193E-3
1.654500E-7	4.270783E-3
1.655000E-7	4.222816E-3
1.655500E-7	4.164570E-3
1.656000E-7	4.116603E-3
1.656500E-7	4.063497E-3
1.657000E-7	3.996686E-3
1.657500E-7	3.952145E-3
1.658000E-7	3.950432E-3
1.658500E-7	3.965850E-3
1.659000E-7	3.986407E-3
1.659500E-7	4.025809E-3
1.660000E-7	4.066923E-3
1.660500E-7	4.109751E-3
1.661000E-7	4.174849E-3
1.661500E-7	4.239947E-3
1.662000E-7	4.262218E-3
1.662500E-7	4.246800E-3
1.663000E-7	4.205685E-3
1.663500E-7	4.130308E-3
1.664000E-7	4.041227E-3
1.664500E-7	3.957284E-3
1.665000E-7	3.852784E-3
1.665500E-7	3.739719E-3
1.666000E-7	3.648924E-3
1.666500E-7	3.583826E-3
1.667000E-7	3.530720E-3
1.667500E-7	3.503310E-3
1.668000E-7	3.510162E-3
1.668500E-7	3.537572E-3
1.669000E-7	3.590679E-3
1.669500E-7	3.667769E-3
1.670000E-7	3.763703E-3
1.670500E-7	3.880194E-3
1.671000E-7	4.029235E-3
1.671500E-7	4.188554E-3
1.672000E-7	4.329029E-3
1.672500E-7	4.447234E-3
1.673000E-7	4.536315E-3
1.673500E-7	4.577430E-3
1.674000E-7	4.567151E-3
1.674500E-7	4.515758E-3
1.675000E-7	4.423250E-3
1.675500E-7	4.296480E-3
1.676000E-7	4.149152E-3
1.676500E-7	3.986407E-3
1.677000E-7	3.815096E-3
1.677500E-7	3.693465E-3
1.678000E-7	3.648924E-3
1.678500E-7	3.638646E-3
1.679000E-7	3.640359E-3
1.679500E-7	3.681473E-3
1.680000E-7	3.739719E-3
1.680500E-7	3.753424E-3
1.681000E-7	3.710596E-3
1.681500E-7	3.618088E-3
1.682000E-7	3.479326E-3
1.682500E-7	3.321720E-3
1.683000E-7	3.162401E-3
1.683500E-7	2.997943E-3
1.684000E-7	2.857467E-3
1.684500E-7	2.790656E-3
1.685000E-7	2.802648E-3
1.685500E-7	2.876312E-3
1.686000E-7	3.018500E-3
1.686500E-7	3.234352E-3
1.687000E-7	3.505023E-3
1.687500E-7	3.785973E-3
1.688000E-7	4.044653E-3
1.688500E-7	4.269070E-3
1.689000E-7	4.459225E-3
1.689500E-7	4.572291E-3
1.690000E-7	4.613405E-3
1.690500E-7	4.621971E-3
1.691000E-7	4.611692E-3
1.691500E-7	4.558586E-3
1.692000E-7	4.481496E-3
1.692500E-7	4.426676E-3
1.693000E-7	4.404406E-3
1.693500E-7	4.426676E-3
1.694000E-7	4.495201E-3
1.694500E-7	4.580856E-3
1.695000E-7	4.675077E-3
1.695500E-7	4.801847E-3
1.696000E-7	4.938896E-3
1.696500E-7	5.022839E-3
1.697000E-7	5.041683E-3
1.697500E-7	5.002281E-3
1.698000E-7	4.884077E-3
1.698500E-7	4.688782E-3
1.699000E-7	4.419824E-3
1.699500E-7	4.061784E-3
1.700000E-7	3.657490E-3
1.700500E-7	3.287458E-3
1.701000E-7	2.979098E-3
1.701500E-7	2.716992E-3
1.702000E-7	2.547395E-3
1.702500E-7	2.526837E-3
1.703000E-7	2.627911E-3
1.703500E-7	2.797509E-3
1.704000E-7	3.049336E-3
1.704500E-7	3.374827E-3
1.705000E-7	3.702031E-3
1.705500E-7	3.993259E-3
1.706000E-7	4.239947E-3
1.706500E-7	4.400980E-3
1.707000E-7	4.431816E-3
1.707500E-7	4.370144E-3
1.708000E-7	4.262218E-3
1.708500E-7	4.111464E-3
1.709000E-7	3.905891E-3
1.709500E-7	3.698605E-3
1.710000E-7	3.566695E-3
1.710500E-7	3.523867E-3
1.711000E-7	3.540998E-3
1.711500E-7	3.616375E-3
1.712000E-7	3.758563E-3
1.712500E-7	3.950432E-3
1.713000E-7	4.164570E-3
1.713500E-7	4.395840E-3
1.714000E-7	4.591135E-3
1.714500E-7	4.716192E-3
1.715000E-7	4.767585E-3
1.715500E-7	4.729897E-3
1.716000E-7	4.579143E-3
1.716500E-7	4.353013E-3
1.717000E-7	4.101185E-3
1.717500E-7	3.816809E-3
1.718000E-7	3.517015E-3
1.718500E-7	3.277179E-3
1.719000E-7	3.109295E-3
1.719500E-7	2.970533E-3
1.720000E-7	2.884877E-3
1.720500E-7	2.890017E-3
1.721000E-7	2.967107E-3
1.721500E-7	3.083598E-3
1.722000E-7	3.237778E-3
1.722500E-7	3.419368E-3
1.723000E-7	3.597531E-3
1.723500E-7	3.756850E-3
1.724000E-7	3.905891E-3
1.724500E-7	4.042940E-3
1.725000E-7	4.167997E-3
1.725500E-7	4.265644E-3
1.726000E-7	4.332455E-3
1.726500E-7	4.368431E-3
1.727000E-7	4.361578E-3
1.727500E-7	4.299906E-3
1.728000E-7	4.200546E-3
1.728500E-7	4.111464E-3
1.729000E-7	4.034374E-3
1.729500E-7	3.933301E-3
1.730000E-7	3.816809E-3
1.730500E-7	3.722588E-3
1.731000E-7	3.642072E-3
1.731500E-7	3.566695E-3
1.732000E-7	3.520441E-3
1.732500E-7	3.508449E-3
1.733000E-7	3.489605E-3
1.733500E-7	3.469048E-3
1.734000E-7	3.472474E-3
1.734500E-7	3.481040E-3
1.735000E-7	3.481040E-3
1.735500E-7	3.481040E-3
1.736000E-7	3.472474E-3
1.736500E-7	3.457056E-3
1.737000E-7	3.462195E-3
1.737500E-7	3.467335E-3
1.738000E-7	3.446777E-3
1.738500E-7	3.431359E-3
1.739000E-7	3.434786E-3
1.739500E-7	3.415941E-3
1.740000E-7	3.381679E-3
1.740500E-7	3.369687E-3
1.741000E-7	3.357696E-3
1.741500E-7	3.321720E-3
1.742000E-7	3.292597E-3
1.742500E-7	3.284032E-3
1.743000E-7	3.265188E-3
1.743500E-7	3.253196E-3
1.744000E-7	3.280606E-3
1.744500E-7	3.313155E-3
1.745000E-7	3.321720E-3
1.745500E-7	3.316581E-3
1.746000E-7	3.320007E-3
1.746500E-7	3.325147E-3
1.747000E-7	3.321720E-3
1.747500E-7	3.308015E-3
1.748000E-7	3.296024E-3
1.748500E-7	3.296024E-3
1.749000E-7	3.323433E-3
1.749500E-7	3.379966E-3
1.750000E-7	3.426220E-3
1.750500E-7	3.451917E-3
1.751000E-7	3.481040E-3
1.751500E-7	3.510162E-3
1.752000E-7	3.522154E-3
1.752500E-7	3.540998E-3
1.753000E-7	3.558129E-3
1.753500E-7	3.530720E-3
1.754000E-7	3.470761E-3
1.754500E-7	3.431359E-3
1.755000E-7	3.407376E-3
1.755500E-7	3.369687E-3
1.756000E-7	3.330286E-3
1.756500E-7	3.302876E-3
1.757000E-7	3.273753E-3
1.757500E-7	3.237778E-3
1.758000E-7	3.174393E-3
1.758500E-7	3.052762E-3
1.759000E-7	2.879738E-3
1.759500E-7	2.684443E-3
1.760000E-7	2.509706E-3
1.760500E-7	2.369231E-3
1.761000E-7	2.245887E-3
1.761500E-7	2.151666E-3
1.762000E-7	2.119117E-3
1.762500E-7	2.163658E-3
1.763000E-7	2.287002E-3
1.763500E-7	2.504567E-3
1.764000E-7	2.812927E-3
1.764500E-7	3.164114E-3
1.765000E-7	3.501597E-3
1.765500E-7	3.799678E-3
1.766000E-7	4.027522E-3
1.766500E-7	4.181702E-3
1.767000E-7	4.251939E-3
1.767500E-7	4.214251E-3
1.768000E-7	4.077202E-3
1.768500E-7	3.904178E-3
1.769000E-7	3.712309E-3
1.769500E-7	3.493031E-3
1.770000E-7	3.294311E-3
1.770500E-7	3.164114E-3
1.771000E-7	3.095590E-3
1.771500E-7	3.078459E-3
1.772000E-7	3.119573E-3
1.772500E-7	3.213794E-3
1.773000E-7	3.333712E-3
1.773500E-7	3.443351E-3
1.774000E-7	3.511876E-3
1.774500E-7	3.540998E-3
1.775000E-7	3.556416E-3
1.775500E-7	3.551277E-3
1.776000E-7	3.508449E-3
1.776500E-7	3.451917E-3
1.777000E-7	3.407376E-3
1.777500E-7	3.371400E-3
1.778000E-7	3.330286E-3
1.778500E-7	3.278893E-3
1.779000E-7	3.220647E-3
1.779500E-7	3.181245E-3
1.780000E-7	3.167540E-3
1.780500E-7	3.160688E-3
1.781000E-7	3.141844E-3
1.781500E-7	3.119573E-3
1.782000E-7	3.119573E-3
1.782500E-7	3.128139E-3
1.783000E-7	3.119573E-3
1.783500E-7	3.114434E-3
1.784000E-7	3.134991E-3
1.784500E-7	3.155549E-3
1.785000E-7	3.143557E-3
1.785500E-7	3.092164E-3
1.786000E-7	2.999656E-3
1.786500E-7	2.890017E-3
1.787000E-7	2.790656E-3
1.787500E-7	2.686156E-3
1.788000E-7	2.561099E-3
1.788500E-7	2.472018E-3
1.789000E-7	2.439469E-3
1.789500E-7	2.432616E-3
1.790000E-7	2.448034E-3
1.790500E-7	2.506280E-3
1.791000E-7	2.581657E-3
1.791500E-7	2.660460E-3
1.792000E-7	2.756394E-3
1.792500E-7	2.847189E-3
1.793000E-7	2.914000E-3
1.793500E-7	2.973959E-3
1.794000E-7	3.025352E-3
1.794500E-7	3.052762E-3
1.795000E-7	3.092164E-3
1.795500E-7	3.182958E-3
1.796000E-7	3.292597E-3
1.796500E-7	3.386818E-3
1.797000E-7	3.487892E-3
1.797500E-7	3.612949E-3
1.798000E-7	3.755137E-3
1.798500E-7	3.900751E-3
1.799000E-7	4.022382E-3
1.799500E-7	4.096046E-3
1.800000E-7	4.133734E-3
1.800500E-7	4.135448E-3
1.801000E-7	4.092620E-3
1.801500E-7	4.015530E-3
1.802000E-7	3.923022E-3
1.802500E-7	3.811670E-3
1.803000E-7	3.669482E-3
1.803500E-7	3.506736E-3
1.804000E-7	3.350843E-3
1.804500E-7	3.205229E-3
1.805000E-7	3.049336E-3
1.805500E-7	2.862607E-3
1.806000E-7	2.645042E-3
1.806500E-7	2.427477E-3
1.807000E-7	2.239035E-3
1.807500E-7	2.071150E-3
1.808000E-7	1.908405E-3
1.808500E-7	1.795339E-3
1.809000E-7	1.771356E-3
1.809500E-7	1.810757E-3
1.810000E-7	1.904978E-3
1.810500E-7	2.086568E-3
1.811000E-7	2.333256E-3
1.811500E-7	2.588509E-3
1.812000E-7	2.854041E-3
1.812500E-7	3.119573E-3
1.813000E-7	3.316581E-3
1.813500E-7	3.426220E-3
1.814000E-7	3.470761E-3
1.814500E-7	3.441638E-3
1.815000E-7	3.338851E-3
1.815500E-7	3.194950E-3
1.816000E-7	3.023639E-3
1.816500E-7	2.836910E-3
1.817000E-7	2.655321E-3
1.817500E-7	2.497714E-3
1.818000E-7	2.388075E-3
1.818500E-7	2.372657E-3
1.819000E-7	2.441182E-3
1.819500E-7	2.574804E-3
1.820000E-7	2.771812E-3
1.820500E-7	2.996229E-3
1.821000E-7	3.205229E-3
1.821500E-7	3.409089E-3
1.822000E-7	3.614662E-3
1.822500E-7	3.772268E-3
1.823000E-7	3.854498E-3
1.823500E-7	3.885334E-3
1.824000E-7	3.880194E-3
1.824500E-7	3.837366E-3
1.825000E-7	3.760276E-3
1.825500E-7	3.636933E-3
1.826000E-7	3.467335E-3
1.826500E-7	3.290884E-3
1.827000E-7	3.129852E-3
1.827500E-7	2.958541E-3
1.828000E-7	2.800935E-3
1.828500E-7	2.710140E-3
1.829000E-7	2.672452E-3
1.829500E-7	2.639903E-3
1.830000E-7	2.634763E-3
1.830500E-7	2.708427E-3
1.831000E-7	2.826632E-3
1.831500E-7	2.934557E-3
1.832000E-7	3.027065E-3
1.832500E-7	3.152122E-3
1.833000E-7	3.308015E-3
1.833500E-7	3.422794E-3
1.834000E-7	3.467335E-3
1.834500E-7	3.470761E-3
1.835000E-7	3.429646E-3
1.835500E-7	3.320007E-3
1.836000E-7	3.170967E-3
1.836500E-7	3.032205E-3
1.837000E-7	2.912287E-3
1.837500E-7	2.800935E-3
1.838000E-7	2.734124E-3
1.838500E-7	2.730697E-3
1.839000E-7	2.794082E-3
1.839500E-7	2.922566E-3
1.840000E-7	3.111008E-3
1.840500E-7	3.335425E-3
1.841000E-7	3.580400E-3
1.841500E-7	3.815096E-3
1.842000E-7	4.005251E-3
1.842500E-7	4.130308E-3
1.843000E-7	4.186841E-3
1.843500E-7	4.166284E-3
1.844000E-7	4.075489E-3
1.844500E-7	3.941866E-3
1.845000E-7	3.763703E-3
1.845500E-7	3.542711E-3
1.846000E-7	3.326860E-3
1.846500E-7	3.158975E-3
1.847000E-7	3.028778E-3
1.847500E-7	2.929418E-3
1.848000E-7	2.876312E-3
1.848500E-7	2.876312E-3
1.849000E-7	2.910574E-3
1.849500E-7	2.958541E-3
1.850000E-7	3.003082E-3
1.850500E-7	3.039057E-3
1.851000E-7	3.071606E-3
1.851500E-7	3.088737E-3
1.852000E-7	3.061328E-3
1.852500E-7	2.999656E-3
1.853000E-7	2.929418E-3
1.853500E-7	2.850615E-3
1.854000E-7	2.742689E-3
1.854500E-7	2.633050E-3
1.855000E-7	2.557673E-3
1.855500E-7	2.525124E-3
1.856000E-7	2.542255E-3
1.856500E-7	2.609067E-3
1.857000E-7	2.708427E-3
1.857500E-7	2.848902E-3
1.858000E-7	3.037344E-3
1.858500E-7	3.237778E-3
1.859000E-7	3.409089E-3
1.859500E-7	3.566695E-3
1.860000E-7	3.712309E-3
1.860500E-7	3.789399E-3
1.861000E-7	3.753424E-3
1.861500E-7	3.640359E-3
1.862000E-7	3.479326E-3
1.862500E-7	3.272040E-3
1.863000E-7	3.035631E-3
1.863500E-7	2.819779E-3
1.864000E-7	2.651894E-3
1.864500E-7	2.537116E-3
1.865000E-7	2.489149E-3
1.865500E-7	2.533690E-3
1.866000E-7	2.655321E-3
1.866500E-7	2.830058E-3
1.867000E-7	3.049336E-3
1.867500E-7	3.275466E-3
1.868000E-7	3.462195E-3
1.868500E-7	3.606097E-3
1.869000E-7	3.715736E-3
1.869500E-7	3.770555E-3
1.870000E-7	3.763703E-3
1.870500E-7	3.724301E-3
1.871000E-7	3.660916E-3
1.871500E-7	3.578687E-3
1.872000E-7	3.510162E-3
1.872500E-7	3.469048E-3
1.873000E-7	3.438212E-3
1.873500E-7	3.415941E-3
1.874000E-7	3.400523E-3
1.874500E-7	3.390245E-3
1.875000E-7	3.374827E-3
1.875500E-7	3.326860E-3
1.876000E-7	3.230925E-3
1.876500E-7	3.140131E-3
1.877000E-7	3.083598E-3
1.877500E-7	3.027065E-3
1.878000E-7	2.982525E-3
1.878500E-7	2.992803E-3
1.879000E-7	3.051049E-3
1.879500E-7	3.116147E-3
1.880000E-7	3.189811E-3
1.880500E-7	3.278893E-3
1.881000E-7	3.352556E-3
1.881500E-7	3.395384E-3
1.882000E-7	3.414228E-3
1.882500E-7	3.414228E-3
1.883000E-7	3.393671E-3
1.883500E-7	3.343991E-3
1.884000E-7	3.270327E-3
1.884500E-7	3.181245E-3
1.885000E-7	3.080172E-3
1.885500E-7	2.985951E-3
1.886000E-7	2.920853E-3
1.886500E-7	2.855754E-3
1.887000E-7	2.754681E-3
1.887500E-7	2.660460E-3
1.888000E-7	2.610780E-3
1.888500E-7	2.569665E-3
1.889000E-7	2.523411E-3
1.889500E-7	2.499428E-3
1.890000E-7	2.484010E-3
1.890500E-7	2.463452E-3
1.891000E-7	2.465165E-3
1.891500E-7	2.482296E-3
1.892000E-7	2.478870E-3
1.892500E-7	2.456600E-3
1.893000E-7	2.429190E-3
1.893500E-7	2.367518E-3
1.894000E-7	2.259592E-3
1.894500E-7	2.134535E-3
1.895000E-7	1.997486E-3
1.895500E-7	1.841593E-3
1.896000E-7	1.683987E-3
1.896500E-7	1.558930E-3
1.897000E-7	1.490406E-3
1.897500E-7	1.485266E-3
1.898000E-7	1.533233E-3
1.898500E-7	1.630881E-3
1.899000E-7	1.795339E-3
1.899500E-7	2.002626E-3
1.900000E-7	2.204773E-3
1.900500E-7	2.376084E-3
1.901000E-7	2.526837E-3
1.901500E-7	2.648468E-3
1.902000E-7	2.715279E-3
1.902500E-7	2.722132E-3
1.903000E-7	2.682730E-3
1.903500E-7	2.607353E-3
1.904000E-7	2.504567E-3
1.904500E-7	2.391502E-3
1.905000E-7	2.297281E-3
1.905500E-7	2.244174E-3
1.906000E-7	2.233895E-3
1.906500E-7	2.235609E-3
1.907000E-7	2.235609E-3
1.907500E-7	2.273297E-3
1.908000E-7	2.364092E-3
1.908500E-7	2.453174E-3
1.909000E-7	2.514845E-3
1.909500E-7	2.593649E-3
1.910000E-7	2.705001E-3
1.910500E-7	2.816353E-3
1.911000E-7	2.907148E-3
1.911500E-7	2.985951E-3
1.912000E-7	3.054475E-3
1.912500E-7	3.131565E-3
1.913000E-7	3.213794E-3
1.913500E-7	3.296024E-3
1.914000E-7	3.390245E-3
1.914500E-7	3.517015E-3
1.915000E-7	3.638646E-3
1.915500E-7	3.714023E-3
1.916000E-7	3.736293E-3
1.916500E-7	3.712309E-3
1.917000E-7	3.618088E-3
1.917500E-7	3.455343E-3
1.918000E-7	3.254909E-3
1.918500E-7	3.030492E-3
1.919000E-7	2.799222E-3
1.919500E-7	2.590222E-3
1.920000E-7	2.436042E-3
1.920500E-7	2.352100E-3
1.921000E-7	2.324690E-3
1.921500E-7	2.334969E-3
1.922000E-7	2.393215E-3
1.922500E-7	2.507993E-3
1.923000E-7	2.663886E-3
1.923500E-7	2.831771E-3
1.924000E-7	3.001369E-3
1.924500E-7	3.153836E-3
1.925000E-7	3.260048E-3
1.925500E-7	3.297737E-3
1.926000E-7	3.266901E-3
1.926500E-7	3.169254E-3
1.927000E-7	3.009934E-3
1.927500E-7	2.821492E-3
1.928000E-7	2.651894E-3
1.928500E-7	2.518272E-3
1.929000E-7	2.401780E-3
1.929500E-7	2.317838E-3
1.930000E-7	2.290428E-3
1.930500E-7	2.298994E-3
1.931000E-7	2.331543E-3
1.931500E-7	2.398354E-3
1.932000E-7	2.502854E-3
1.932500E-7	2.631337E-3
1.933000E-7	2.768386E-3
1.933500E-7	2.883164E-3
1.934000E-7	2.965393E-3
1.934500E-7	3.032205E-3
1.935000E-7	3.073319E-3
1.935500E-7	3.061328E-3
1.936000E-7	3.018500E-3
1.936500E-7	2.984238E-3
1.937000E-7	2.937984E-3
1.937500E-7	2.878025E-3
1.938000E-7	2.823205E-3
1.938500E-7	2.761533E-3
1.939000E-7	2.682730E-3
1.939500E-7	2.638189E-3
1.940000E-7	2.650181E-3
1.940500E-7	2.665599E-3
1.941000E-7	2.674165E-3
1.941500E-7	2.740976E-3
1.942000E-7	2.876312E-3
1.942500E-7	3.003082E-3
1.943000E-7	3.104155E-3
1.943500E-7	3.227499E-3
1.944000E-7	3.359409E-3
1.944500E-7	3.438212E-3
1.945000E-7	3.479326E-3
1.945500E-7	3.539285E-3
1.946000E-7	3.578687E-3
1.946500E-7	3.523867E-3
1.947000E-7	3.391958E-3
1.947500E-7	3.242917E-3
1.948000E-7	3.088737E-3
1.948500E-7	2.915713E-3
1.949000E-7	2.718706E-3
1.949500E-7	2.519985E-3
1.950000E-7	2.348674E-3
1.950500E-7	2.213338E-3
1.951000E-7	2.089994E-3
1.951500E-7	1.970077E-3
1.952000E-7	1.892987E-3
1.952500E-7	1.872429E-3
1.953000E-7	1.894700E-3
1.953500E-7	1.959798E-3
1.954000E-7	2.069437E-3
1.954500E-7	2.206486E-3
1.955000E-7	2.370944E-3
1.955500E-7	2.557673E-3
1.956000E-7	2.742689E-3
1.956500E-7	2.902008E-3
1.957000E-7	3.049336E-3
1.957500E-7	3.186385E-3
1.958000E-7	3.289171E-3
1.958500E-7	3.357696E-3
1.959000E-7	3.391958E-3
1.959500E-7	3.383392E-3
1.960000E-7	3.333712E-3
1.960500E-7	3.258335E-3
1.961000E-7	3.165827E-3
1.961500E-7	3.047623E-3
1.962000E-7	2.915713E-3
1.962500E-7	2.797509E-3
1.963000E-7	2.710140E-3
1.963500E-7	2.663886E-3
1.964000E-7	2.663886E-3
1.964500E-7	2.698148E-3
1.965000E-7	2.756394E-3
1.965500E-7	2.836910E-3
1.966000E-7	2.922566E-3
1.966500E-7	2.991090E-3
1.967000E-7	3.047623E-3
1.967500E-7	3.114434E-3
1.968000E-7	3.181245E-3
1.968500E-7	3.224073E-3
1.969000E-7	3.237778E-3
1.969500E-7	3.232639E-3
1.970000E-7	3.193237E-3
1.970500E-7	3.095590E-3
1.971000E-7	2.975672E-3
1.971500E-7	2.867746E-3
1.972000E-7	2.751255E-3
1.972500E-7	2.627911E-3
1.973000E-7	2.540542E-3
1.973500E-7	2.490862E-3
1.974000E-7	2.458313E-3
1.974500E-7	2.468592E-3
1.975000E-7	2.530263E-3
1.975500E-7	2.603927E-3
1.976000E-7	2.681017E-3
1.976500E-7	2.776951E-3
1.977000E-7	2.862607E-3
1.977500E-7	2.903721E-3
1.978000E-7	2.922566E-3
1.978500E-7	2.924279E-3
1.979000E-7	2.874599E-3
1.979500E-7	2.780378E-3
1.980000E-7	2.667312E-3
1.980500E-7	2.530263E-3
1.981000E-7	2.389788E-3
1.981500E-7	2.302420E-3
1.982000E-7	2.268158E-3
1.982500E-7	2.233895E-3
1.983000E-7	2.232182E-3
1.983500E-7	2.305846E-3
1.984000E-7	2.410346E-3
1.984500E-7	2.506280E-3
1.985000E-7	2.609067E-3
1.985500E-7	2.706714E-3
1.986000E-7	2.751255E-3
1.986500E-7	2.751255E-3
1.987000E-7	2.725558E-3
1.987500E-7	2.657034E-3
1.988000E-7	2.549108E-3
1.988500E-7	2.427477E-3
1.989000E-7	2.312699E-3
1.989500E-7	2.240748E-3
1.990000E-7	2.244174E-3
1.990500E-7	2.283576E-3
1.991000E-7	2.319551E-3
1.991500E-7	2.379510E-3
1.992000E-7	2.468592E-3
1.992500E-7	2.562813E-3
1.993000E-7	2.665599E-3
1.993500E-7	2.787230E-3
1.994000E-7	2.891730E-3
1.994500E-7	2.961967E-3
1.995000E-7	2.996229E-3
1.995500E-7	2.982525E-3
1.996000E-7	2.948262E-3
1.996500E-7	2.915713E-3
1.997000E-7	2.872885E-3
1.997500E-7	2.818066E-3
1.998000E-7	2.797509E-3
1.998500E-7	2.809500E-3
1.999000E-7	2.806074E-3
1.999500E-7	2.783804E-3
2.000000E-7	2.776951E-3
