Study Name	fullMap
Sample Name	CuCrAl
Run Name	spot00
Operator	Colin
Date	1/31/2024
Time	12:24 PM
Sign	POS
Grating Spacing	06.40um
Channel	2
Number Traces	2000
Files in Batch	1
Batch Number	2
dt	50.000001E-12
time stamp (ms)	6:01:11 PM
	
Time	Amplitude
0.000000E+0	-4.882364E-4
5.000000E-11	-6.972358E-4
1.000000E-10	-9.182270E-4
1.500000E-10	-1.080972E-3
2.000000E-10	-1.161489E-3
2.500000E-10	-1.197464E-3
3.000000E-10	-1.185472E-3
3.500000E-10	-1.113522E-3
4.000000E-10	-1.000456E-3
4.500000E-10	-8.685468E-4
5.000000E-10	-7.075144E-4
5.500000E-10	-5.464821E-4
6.000000E-10	-3.923022E-4
6.500000E-10	-2.569665E-4
7.000000E-10	-1.387619E-4
7.500000E-10	-4.796708E-5
8.000000E-10	1.199177E-5
8.500000E-10	3.940153E-5
9.000000E-10	1.370488E-5
9.500000E-10	-5.995885E-5
1.000000E-9	-1.593192E-4
1.050000E-9	-2.535403E-4
1.100000E-9	-3.100729E-4
1.150000E-9	-3.117860E-4
1.200000E-9	-2.895156E-4
1.250000E-9	-2.621058E-4
1.300000E-9	-2.329830E-4
1.350000E-9	-2.004339E-4
1.400000E-9	-1.781634E-4
1.450000E-9	-1.507537E-4
1.500000E-9	-1.113522E-4
1.550000E-9	-8.051617E-5
1.600000E-9	-5.653263E-5
1.650000E-9	-4.282775E-5
1.700000E-9	-4.454086E-5
1.750000E-9	-3.597531E-5
1.800000E-9	1.884421E-5
1.850000E-9	8.908172E-5
1.900000E-9	1.199177E-4
1.950000E-9	9.593416E-5
2.000000E-9	6.852440E-5
2.050000E-9	3.768842E-5
2.100000E-9	-1.370488E-5
2.150000E-9	-7.880306E-5
2.200000E-9	-1.473275E-4
2.250000E-9	-2.484010E-4
2.300000E-9	-3.648924E-4
2.350000E-9	-5.070806E-4
2.400000E-9	-6.886702E-4
2.450000E-9	-9.045221E-4
2.500000E-9	-1.116948E-3
2.550000E-9	-1.279693E-3
2.600000E-9	-1.403037E-3
2.650000E-9	-1.492119E-3
2.700000E-9	-1.517815E-3
2.750000E-9	-1.466422E-3
2.800000E-9	-1.339652E-3
2.850000E-9	-1.149497E-3
2.900000E-9	-9.148007E-4
2.950000E-9	-6.526949E-4
3.000000E-9	-4.128595E-4
3.050000E-9	-2.021470E-4
3.100000E-9	-1.199177E-5
3.150000E-9	1.370488E-4
3.200000E-9	2.158519E-4
3.250000E-9	2.312699E-4
3.300000E-9	2.261305E-4
3.350000E-9	1.987208E-4
3.400000E-9	1.319095E-4
3.450000E-9	5.139330E-5
3.500000E-9	-2.055732E-5
3.550000E-9	-6.338507E-5
3.600000E-9	-6.509818E-5
3.650000E-9	-7.880306E-5
3.700000E-9	-1.353357E-4
3.750000E-9	-1.730241E-4
3.800000E-9	-1.627455E-4
3.850000E-9	-1.695979E-4
3.900000E-9	-2.141388E-4
3.950000E-9	-2.175650E-4
4.000000E-9	-1.730241E-4
4.050000E-9	-1.833028E-4
4.100000E-9	-2.449747E-4
4.150000E-9	-2.672452E-4
4.200000E-9	-2.501141E-4
4.250000E-9	-2.843763E-4
4.300000E-9	-3.768842E-4
4.350000E-9	-4.488348E-4
4.400000E-9	-5.105068E-4
4.450000E-9	-6.081541E-4
4.500000E-9	-6.835309E-4
4.550000E-9	-6.835309E-4
4.600000E-9	-6.595474E-4
4.650000E-9	-6.544080E-4
4.700000E-9	-6.081541E-4
4.750000E-9	-4.916626E-4
4.800000E-9	-3.614662E-4
4.850000E-9	-2.072863E-4
4.900000E-9	6.852440E-6
4.950000E-9	2.484010E-4
5.000000E-9	4.471217E-4
5.050000E-9	5.807443E-4
5.100000E-9	6.869571E-4
5.150000E-9	7.469160E-4
5.200000E-9	7.417766E-4
5.250000E-9	6.595474E-4
5.300000E-9	5.327772E-4
5.350000E-9	3.923022E-4
5.400000E-9	2.312699E-4
5.450000E-9	4.282775E-5
5.500000E-9	-1.695979E-4
5.550000E-9	-3.683187E-4
5.600000E-9	-5.396297E-4
5.650000E-9	-7.040882E-4
5.700000E-9	-8.788254E-4
5.750000E-9	-1.051850E-3
5.800000E-9	-1.226587E-3
5.850000E-9	-1.399611E-3
5.900000E-9	-1.552078E-3
5.950000E-9	-1.660004E-3
6.000000E-9	-1.759364E-3
6.050000E-9	-1.860437E-3
6.100000E-9	-1.944380E-3
6.150000E-9	-2.018044E-3
6.200000E-9	-2.069437E-3
6.250000E-9	-2.050593E-3
6.300000E-9	-1.963224E-3
6.350000E-9	-1.869003E-3
6.400000E-9	-1.740520E-3
6.450000E-9	-1.529807E-3
6.500000E-9	-1.277980E-3
6.550000E-9	-1.038145E-3
6.600000E-9	-7.897437E-4
6.650000E-9	-5.156461E-4
6.700000E-9	-2.603927E-4
6.750000E-9	-6.509818E-5
6.800000E-9	3.597531E-5
6.850000E-9	7.023751E-5
6.900000E-9	8.051617E-5
6.950000E-9	5.824574E-5
7.000000E-9	-3.254909E-5
7.050000E-9	-1.473275E-4
7.100000E-9	-2.261305E-4
7.150000E-9	-2.723845E-4
7.200000E-9	-2.912287E-4
7.250000E-9	-2.244174E-4
7.300000E-9	-1.027866E-4
7.350000E-9	5.310641E-5
7.400000E-9	2.723845E-4
7.450000E-9	5.036543E-4
7.500000E-9	6.492687E-4
7.550000E-9	7.109407E-4
7.600000E-9	7.297849E-4
7.650000E-9	6.355638E-4
7.700000E-9	4.042940E-4
7.750000E-9	1.079259E-4
7.800000E-9	-2.209912E-4
7.850000E-9	-5.995885E-4
7.900000E-9	-9.627678E-4
7.950000E-9	-1.250570E-3
8.000000E-9	-1.471561E-3
8.050000E-9	-1.600045E-3
8.100000E-9	-1.593192E-3
8.150000E-9	-1.478414E-3
8.200000E-9	-1.300250E-3
8.250000E-9	-1.062128E-3
8.300000E-9	-7.983093E-4
8.350000E-9	-5.344903E-4
8.400000E-9	-3.066467E-4
8.450000E-9	-1.490406E-4
8.500000E-9	-9.250794E-5
8.550000E-9	-1.079259E-4
8.600000E-9	-1.610323E-4
8.650000E-9	-2.261305E-4
8.700000E-9	-2.895156E-4
8.750000E-9	-3.391958E-4
8.800000E-9	-3.991546E-4
8.850000E-9	-4.642528E-4
8.900000E-9	-4.882364E-4
8.950000E-9	-4.762446E-4
9.000000E-9	-4.299906E-4
9.050000E-9	-3.083598E-4
9.100000E-9	-1.164915E-4
9.150000E-9	6.681129E-5
9.200000E-9	1.867290E-4
9.250000E-9	2.895156E-4
9.300000E-9	4.008677E-4
9.350000E-9	4.830970E-4
9.400000E-9	5.567608E-4
9.450000E-9	6.304245E-4
9.500000E-9	6.732522E-4
9.550000E-9	6.218589E-4
9.600000E-9	5.002281E-4
9.650000E-9	3.666055E-4
9.700000E-9	2.484010E-4
9.750000E-9	1.507537E-4
9.800000E-9	8.394239E-5
9.850000E-9	2.569665E-5
9.900000E-9	-1.884421E-5
9.950000E-9	-4.968019E-5
1.000000E-8	-7.195062E-5
1.005000E-8	-9.079483E-5
1.010000E-8	-8.736861E-5
1.015000E-8	-6.167196E-5
1.020000E-8	-2.569665E-5
1.025000E-8	1.199177E-5
1.030000E-8	6.681129E-5
1.035000E-8	1.301964E-4
1.040000E-8	1.730241E-4
1.045000E-8	1.678848E-4
1.050000E-8	1.027866E-4
1.055000E-8	2.055732E-5
1.060000E-8	-3.083598E-5
1.065000E-8	-3.597531E-5
1.070000E-8	-2.912287E-5
1.075000E-8	0.000000E+0
1.080000E-8	6.852440E-5
1.085000E-8	1.524668E-4
1.090000E-8	2.141388E-4
1.095000E-8	2.552534E-4
1.100000E-8	2.878025E-4
1.105000E-8	2.792369E-4
1.110000E-8	2.021470E-4
1.115000E-8	6.167196E-5
1.120000E-8	-1.010735E-4
1.125000E-8	-2.689583E-4
1.130000E-8	-4.214251E-4
1.135000E-8	-5.344903E-4
1.140000E-8	-6.030147E-4
1.145000E-8	-6.304245E-4
1.150000E-8	-5.773181E-4
1.155000E-8	-4.368431E-4
1.160000E-8	-2.689583E-4
1.165000E-8	-1.456144E-4
1.170000E-8	-5.995885E-5
1.175000E-8	-1.713110E-6
1.180000E-8	1.541799E-5
1.185000E-8	-1.713110E-6
1.190000E-8	-1.199177E-5
1.195000E-8	-4.454086E-5
1.200000E-8	-1.233439E-4
1.205000E-8	-2.329830E-4
1.210000E-8	-3.409089E-4
1.215000E-8	-4.471217E-4
1.220000E-8	-5.601870E-4
1.225000E-8	-6.595474E-4
1.230000E-8	-7.212193E-4
1.235000E-8	-7.554815E-4
1.240000E-8	-7.794651E-4
1.245000E-8	-8.068748E-4
1.250000E-8	-8.531288E-4
1.255000E-8	-9.353581E-4
1.260000E-8	-1.031292E-3
1.265000E-8	-1.118661E-3
1.270000E-8	-1.178620E-3
1.275000E-8	-1.272841E-3
1.280000E-8	-1.380767E-3
1.285000E-8	-1.466422E-3
1.290000E-8	-1.516102E-3
1.295000E-8	-1.558930E-3
1.300000E-8	-1.558930E-3
1.305000E-8	-1.468135E-3
1.310000E-8	-1.349931E-3
1.315000E-8	-1.218021E-3
1.320000E-8	-1.024440E-3
1.325000E-8	-7.657602E-4
1.330000E-8	-5.224986E-4
1.335000E-8	-2.843763E-4
1.340000E-8	-4.625397E-5
1.345000E-8	9.593416E-5
1.350000E-8	9.079483E-5
1.355000E-8	2.398354E-5
1.360000E-8	-9.079483E-5
1.365000E-8	-3.049336E-4
1.370000E-8	-5.841705E-4
1.375000E-8	-8.582681E-4
1.380000E-8	-1.113522E-3
1.385000E-8	-1.341365E-3
1.390000E-8	-1.500684E-3
1.395000E-8	-1.596619E-3
1.400000E-8	-1.660004E-3
1.405000E-8	-1.651438E-3
1.410000E-8	-1.564069E-3
1.415000E-8	-1.444152E-3
1.420000E-8	-1.281406E-3
1.425000E-8	-1.094677E-3
1.430000E-8	-9.524892E-4
1.435000E-8	-8.959565E-4
1.440000E-8	-8.651206E-4
1.445000E-8	-8.222928E-4
1.450000E-8	-8.017355E-4
1.455000E-8	-7.606208E-4
1.460000E-8	-6.389900E-4
1.465000E-8	-4.711053E-4
1.470000E-8	-3.066467E-4
1.475000E-8	-1.353357E-4
1.480000E-8	5.310641E-5
1.485000E-8	2.364092E-4
1.490000E-8	3.683187E-4
1.495000E-8	4.317037E-4
1.500000E-8	4.282775E-4
1.505000E-8	3.648924E-4
1.510000E-8	2.518272E-4
1.515000E-8	1.319095E-4
1.520000E-8	3.426220E-5
1.525000E-8	-7.708995E-5
1.530000E-8	-2.398354E-4
1.535000E-8	-4.317037E-4
1.540000E-8	-6.098672E-4
1.545000E-8	-7.948830E-4
1.550000E-8	-9.490629E-4
1.555000E-8	-1.043284E-3
1.560000E-8	-1.094677E-3
1.565000E-8	-1.113522E-3
1.570000E-8	-1.065554E-3
1.575000E-8	-9.542023E-4
1.580000E-8	-8.137273E-4
1.585000E-8	-6.526949E-4
1.590000E-8	-4.436955E-4
1.595000E-8	-2.227043E-4
1.600000E-8	-3.940153E-5
1.605000E-8	1.027866E-4
1.610000E-8	2.055732E-4
1.615000E-8	2.569665E-4
1.620000E-8	2.295567E-4
1.625000E-8	1.216308E-4
1.630000E-8	-4.454086E-5
1.635000E-8	-2.449747E-4
1.640000E-8	-4.522610E-4
1.645000E-8	-6.372769E-4
1.650000E-8	-7.469160E-4
1.655000E-8	-7.691864E-4
1.660000E-8	-7.657602E-4
1.665000E-8	-7.794651E-4
1.670000E-8	-7.743257E-4
1.675000E-8	-6.955227E-4
1.680000E-8	-5.567608E-4
1.685000E-8	-3.957284E-4
1.690000E-8	-2.244174E-4
1.695000E-8	1.370488E-5
1.700000E-8	3.631793E-4
1.705000E-8	8.565550E-4
1.710000E-8	1.485266E-3
1.715000E-8	2.227043E-3
1.720000E-8	3.099016E-3
1.725000E-8	4.113177E-3
1.730000E-8	5.221559E-3
1.735000E-8	6.357351E-3
1.740000E-8	7.501709E-3
1.745000E-8	8.639214E-3
1.750000E-8	9.725326E-3
1.755000E-8	1.072578E-2
1.760000E-8	1.160289E-2
1.765000E-8	1.233097E-2
1.770000E-8	1.291000E-2
1.775000E-8	1.337082E-2
1.780000E-8	1.375970E-2
1.785000E-8	1.407491E-2
1.790000E-8	1.434730E-2
1.795000E-8	1.463167E-2
1.800000E-8	1.497429E-2
1.805000E-8	1.542142E-2
1.810000E-8	1.596619E-2
1.815000E-8	1.657091E-2
1.820000E-8	1.719791E-2
1.825000E-8	1.781292E-2
1.830000E-8	1.839709E-2
1.835000E-8	1.892301E-2
1.840000E-8	1.932902E-2
1.845000E-8	1.955686E-2
1.850000E-8	1.959113E-2
1.855000E-8	1.944037E-2
1.860000E-8	1.912173E-2
1.865000E-8	1.861808E-2
1.870000E-8	1.792084E-2
1.875000E-8	1.707114E-2
1.880000E-8	1.613064E-2
1.885000E-8	1.512162E-2
1.890000E-8	1.404750E-2
1.895000E-8	1.293569E-2
1.900000E-8	1.186500E-2
1.905000E-8	1.091080E-2
1.910000E-8	1.008508E-2
1.915000E-8	9.374138E-3
1.920000E-8	8.819090E-3
1.925000E-8	8.461050E-3
1.930000E-8	8.296592E-3
1.935000E-8	8.324002E-3
1.940000E-8	8.548419E-3
1.945000E-8	8.944147E-3
1.950000E-8	9.516326E-3
1.955000E-8	1.028037E-2
1.960000E-8	1.120374E-2
1.965000E-8	1.220762E-2
1.970000E-8	1.329373E-2
1.975000E-8	1.441753E-2
1.980000E-8	1.551221E-2
1.985000E-8	1.656406E-2
1.990000E-8	1.756966E-2
1.995000E-8	1.844506E-2
2.000000E-8	1.914229E-2
2.005000E-8	1.976586E-2
2.010000E-8	2.030207E-2
2.015000E-8	2.064298E-2
2.020000E-8	2.078174E-2
2.025000E-8	2.074062E-2
2.030000E-8	2.048537E-2
2.035000E-8	1.998343E-2
2.040000E-8	1.924850E-2
2.045000E-8	1.830629E-2
2.050000E-8	1.723731E-2
2.055000E-8	1.612208E-2
2.060000E-8	1.491605E-2
2.065000E-8	1.360209E-2
2.070000E-8	1.236009E-2
2.075000E-8	1.129282E-2
2.080000E-8	1.032834E-2
2.085000E-8	9.516326E-3
2.090000E-8	8.949287E-3
2.095000E-8	8.579255E-3
2.100000E-8	8.347985E-3
2.105000E-8	8.370256E-3
2.110000E-8	8.707738E-3
2.115000E-8	9.259360E-3
2.120000E-8	9.954882E-3
2.125000E-8	1.083885E-2
2.130000E-8	1.186671E-2
2.135000E-8	1.295968E-2
2.140000E-8	1.405093E-2
2.145000E-8	1.506680E-2
2.150000E-8	1.593535E-2
2.155000E-8	1.667541E-2
2.160000E-8	1.727500E-2
2.165000E-8	1.769300E-2
2.170000E-8	1.797224E-2
2.175000E-8	1.817096E-2
2.180000E-8	1.826518E-2
2.185000E-8	1.824633E-2
2.190000E-8	1.817952E-2
2.195000E-8	1.810586E-2
2.200000E-8	1.797224E-2
2.205000E-8	1.772898E-2
2.210000E-8	1.741205E-2
2.215000E-8	1.708999E-2
2.220000E-8	1.678848E-2
2.225000E-8	1.649382E-2
2.230000E-8	1.620602E-2
2.235000E-8	1.593021E-2
2.240000E-8	1.568524E-2
2.245000E-8	1.543512E-2
2.250000E-8	1.513533E-2
2.255000E-8	1.477043E-2
2.260000E-8	1.438841E-2
2.265000E-8	1.401153E-2
2.270000E-8	1.360038E-2
2.275000E-8	1.316354E-2
2.280000E-8	1.277637E-2
2.285000E-8	1.243889E-2
2.290000E-8	1.214595E-2
2.295000E-8	1.194038E-2
2.300000E-8	1.183930E-2
2.305000E-8	1.175193E-2
2.310000E-8	1.171253E-2
2.315000E-8	1.179476E-2
2.320000E-8	1.195237E-2
2.325000E-8	1.219220E-2
2.330000E-8	1.258108E-2
2.335000E-8	1.304705E-2
2.340000E-8	1.350273E-2
2.345000E-8	1.400981E-2
2.350000E-8	1.461283E-2
2.355000E-8	1.519357E-2
2.360000E-8	1.568524E-2
2.365000E-8	1.614264E-2
2.370000E-8	1.662402E-2
2.375000E-8	1.713453E-2
2.380000E-8	1.763133E-2
2.385000E-8	1.805789E-2
2.390000E-8	1.842621E-2
2.395000E-8	1.872601E-2
2.400000E-8	1.891102E-2
2.405000E-8	1.897612E-2
2.410000E-8	1.899496E-2
2.415000E-8	1.891102E-2
2.420000E-8	1.862151E-2
2.425000E-8	1.819494E-2
2.430000E-8	1.772041E-2
2.435000E-8	1.713281E-2
2.440000E-8	1.639789E-2
2.445000E-8	1.561328E-2
2.450000E-8	1.484410E-2
2.455000E-8	1.406977E-2
2.460000E-8	1.333314E-2
2.465000E-8	1.264960E-2
2.470000E-8	1.196265E-2
2.475000E-8	1.130481E-2
2.480000E-8	1.073435E-2
2.485000E-8	1.022727E-2
2.490000E-8	9.792137E-3
2.495000E-8	9.555728E-3
2.500000E-8	9.550588E-3
2.505000E-8	9.704768E-3
2.510000E-8	1.005596E-2
2.515000E-8	1.069837E-2
2.520000E-8	1.154465E-2
2.525000E-8	1.249714E-2
2.530000E-8	1.362436E-2
2.535000E-8	1.492290E-2
2.540000E-8	1.626084E-2
2.545000E-8	1.757993E-2
2.550000E-8	1.882708E-2
2.555000E-8	1.987722E-2
2.560000E-8	2.068409E-2
2.565000E-8	2.124599E-2
2.570000E-8	2.151666E-2
2.575000E-8	2.146527E-2
2.580000E-8	2.111579E-2
2.585000E-8	2.047166E-2
2.590000E-8	1.958427E-2
2.595000E-8	1.858382E-2
2.600000E-8	1.748571E-2
2.605000E-8	1.631566E-2
2.610000E-8	1.518843E-2
2.615000E-8	1.419826E-2
2.620000E-8	1.327832E-2
2.625000E-8	1.243204E-2
2.630000E-8	1.175536E-2
2.635000E-8	1.124314E-2
2.640000E-8	1.082686E-2
2.645000E-8	1.050308E-2
2.650000E-8	1.033348E-2
2.655000E-8	1.025982E-2
2.660000E-8	1.026324E-2
2.665000E-8	1.037802E-2
2.670000E-8	1.065383E-2
2.675000E-8	1.105813E-2
2.680000E-8	1.155321E-2
2.685000E-8	1.214595E-2
2.690000E-8	1.281064E-2
2.695000E-8	1.353871E-2
2.700000E-8	1.430618E-2
2.705000E-8	1.507023E-2
2.710000E-8	1.578117E-2
2.715000E-8	1.644072E-2
2.720000E-8	1.699748E-2
2.725000E-8	1.746344E-2
2.730000E-8	1.785917E-2
2.735000E-8	1.815725E-2
2.740000E-8	1.828402E-2
2.745000E-8	1.823434E-2
2.750000E-8	1.808530E-2
2.755000E-8	1.787630E-2
2.760000E-8	1.760906E-2
2.765000E-8	1.729556E-2
2.770000E-8	1.696664E-2
2.775000E-8	1.663430E-2
2.780000E-8	1.635849E-2
2.785000E-8	1.610495E-2
2.790000E-8	1.582742E-2
2.795000E-8	1.557560E-2
2.800000E-8	1.538715E-2
2.805000E-8	1.520728E-2
2.810000E-8	1.501027E-2
2.815000E-8	1.482525E-2
2.820000E-8	1.462996E-2
2.825000E-8	1.440383E-2
2.830000E-8	1.416057E-2
2.835000E-8	1.388647E-2
2.840000E-8	1.356269E-2
2.845000E-8	1.322521E-2
2.850000E-8	1.289115E-2
2.855000E-8	1.254339E-2
2.860000E-8	1.224874E-2
2.865000E-8	1.203631E-2
2.870000E-8	1.182046E-2
2.875000E-8	1.161489E-2
2.880000E-8	1.154636E-2
2.885000E-8	1.163030E-2
2.890000E-8	1.179990E-2
2.895000E-8	1.205173E-2
2.900000E-8	1.238579E-2
2.905000E-8	1.278323E-2
2.910000E-8	1.322521E-2
2.915000E-8	1.370659E-2
2.920000E-8	1.422909E-2
2.925000E-8	1.478071E-2
2.930000E-8	1.534433E-2
2.935000E-8	1.590109E-2
2.940000E-8	1.647327E-2
2.945000E-8	1.701461E-2
2.950000E-8	1.746173E-2
2.955000E-8	1.786602E-2
2.960000E-8	1.828745E-2
2.965000E-8	1.863007E-2
2.970000E-8	1.880481E-2
2.975000E-8	1.880995E-2
2.980000E-8	1.865919E-2
2.985000E-8	1.832856E-2
2.990000E-8	1.784889E-2
2.995000E-8	1.725958E-2
3.000000E-8	1.651438E-2
3.005000E-8	1.562528E-2
3.010000E-8	1.465223E-2
3.015000E-8	1.360723E-2
3.020000E-8	1.252797E-2
3.025000E-8	1.151210E-2
3.030000E-8	1.059730E-2
3.035000E-8	9.814407E-3
3.040000E-8	9.247368E-3
3.045000E-8	8.920164E-3
3.050000E-8	8.776263E-3
3.055000E-8	8.755705E-3
3.060000E-8	8.918451E-3
3.065000E-8	9.293622E-3
3.070000E-8	9.819547E-3
3.075000E-8	1.049965E-2
3.080000E-8	1.136991E-2
3.085000E-8	1.236351E-2
3.090000E-8	1.340851E-2
3.095000E-8	1.450490E-2
3.100000E-8	1.564755E-2
3.105000E-8	1.675936E-2
3.110000E-8	1.777009E-2
3.115000E-8	1.866091E-2
3.120000E-8	1.937527E-2
3.125000E-8	1.988407E-2
3.130000E-8	2.013761E-2
3.135000E-8	2.015817E-2
3.140000E-8	1.998343E-2
3.145000E-8	1.963909E-2
3.150000E-8	1.910632E-2
3.155000E-8	1.836454E-2
3.160000E-8	1.746687E-2
3.165000E-8	1.646641E-2
3.170000E-8	1.537859E-2
3.175000E-8	1.428562E-2
3.180000E-8	1.325091E-2
3.185000E-8	1.230527E-2
3.190000E-8	1.146071E-2
3.195000E-8	1.074805E-2
3.200000E-8	1.019300E-2
3.205000E-8	9.809268E-3
3.210000E-8	9.636244E-3
3.215000E-8	9.661940E-3
3.220000E-8	9.857235E-3
3.225000E-8	1.013133E-2
3.230000E-8	1.045854E-2
3.235000E-8	1.087482E-2
3.240000E-8	1.136820E-2
3.245000E-8	1.189755E-2
3.250000E-8	1.250228E-2
3.255000E-8	1.323549E-2
3.260000E-8	1.403208E-2
3.265000E-8	1.482011E-2
3.270000E-8	1.559958E-2
3.275000E-8	1.636534E-2
3.280000E-8	1.700433E-2
3.285000E-8	1.750113E-2
3.290000E-8	1.788144E-2
3.295000E-8	1.813156E-2
3.300000E-8	1.818809E-2
3.305000E-8	1.807160E-2
3.310000E-8	1.782320E-2
3.315000E-8	1.746173E-2
3.320000E-8	1.700947E-2
3.325000E-8	1.649040E-2
3.330000E-8	1.591993E-2
3.335000E-8	1.532720E-2
3.340000E-8	1.477386E-2
3.345000E-8	1.431475E-2
3.350000E-8	1.399097E-2
3.355000E-8	1.375285E-2
3.360000E-8	1.358668E-2
3.365000E-8	1.350787E-2
3.370000E-8	1.350445E-2
3.375000E-8	1.353186E-2
3.380000E-8	1.355413E-2
3.385000E-8	1.356441E-2
3.390000E-8	1.352672E-2
3.395000E-8	1.340851E-2
3.400000E-8	1.320294E-2
3.405000E-8	1.293055E-2
3.410000E-8	1.261363E-2
3.415000E-8	1.226758E-2
3.420000E-8	1.194552E-2
3.425000E-8	1.165943E-2
3.430000E-8	1.140075E-2
3.435000E-8	1.119175E-2
3.440000E-8	1.106498E-2
3.445000E-8	1.102215E-2
3.450000E-8	1.107012E-2
3.455000E-8	1.126027E-2
3.460000E-8	1.158062E-2
3.465000E-8	1.198834E-2
3.470000E-8	1.253140E-2
3.475000E-8	1.322007E-2
3.480000E-8	1.398926E-2
3.485000E-8	1.476530E-2
3.490000E-8	1.551735E-2
3.495000E-8	1.623000E-2
3.500000E-8	1.688955E-2
3.505000E-8	1.747372E-2
3.510000E-8	1.794140E-2
3.515000E-8	1.828231E-2
3.520000E-8	1.853242E-2
3.525000E-8	1.867461E-2
3.530000E-8	1.865919E-2
3.535000E-8	1.845705E-2
3.540000E-8	1.814869E-2
3.545000E-8	1.772726E-2
3.550000E-8	1.713281E-2
3.555000E-8	1.632594E-2
3.560000E-8	1.535632E-2
3.565000E-8	1.431646E-2
3.570000E-8	1.321150E-2
3.575000E-8	1.200547E-2
3.580000E-8	1.075319E-2
3.585000E-8	9.586564E-3
3.590000E-8	8.604952E-3
3.595000E-8	7.823773E-3
3.600000E-8	7.249882E-3
3.605000E-8	6.938096E-3
3.610000E-8	6.917538E-3
3.615000E-8	7.174505E-3
3.620000E-8	7.719274E-3
3.625000E-8	8.522722E-3
3.630000E-8	9.526605E-3
3.635000E-8	1.068467E-2
3.640000E-8	1.196607E-2
3.645000E-8	1.325262E-2
3.650000E-8	1.443980E-2
3.655000E-8	1.551906E-2
3.660000E-8	1.643729E-2
3.665000E-8	1.711054E-2
3.670000E-8	1.756966E-2
3.675000E-8	1.792598E-2
3.680000E-8	1.811614E-2
3.685000E-8	1.809215E-2
3.690000E-8	1.795511E-2
3.695000E-8	1.774611E-2
3.700000E-8	1.742062E-2
3.705000E-8	1.700776E-2
3.710000E-8	1.658290E-2
3.715000E-8	1.610152E-2
3.720000E-8	1.557217E-2
3.725000E-8	1.504967E-2
3.730000E-8	1.454088E-2
3.735000E-8	1.399782E-2
3.740000E-8	1.340851E-2
3.745000E-8	1.280892E-2
3.750000E-8	1.219049E-2
3.755000E-8	1.154294E-2
3.760000E-8	1.092108E-2
3.765000E-8	1.039173E-2
3.770000E-8	9.978866E-3
3.775000E-8	9.658514E-3
3.780000E-8	9.442662E-3
3.785000E-8	9.380990E-3
3.790000E-8	9.497482E-3
3.795000E-8	9.749309E-3
3.800000E-8	1.010906E-2
3.805000E-8	1.060929E-2
3.810000E-8	1.123115E-2
3.815000E-8	1.193695E-2
3.820000E-8	1.265303E-2
3.825000E-8	1.336054E-2
3.830000E-8	1.405264E-2
3.835000E-8	1.467621E-2
3.840000E-8	1.517302E-2
3.845000E-8	1.552249E-2
3.850000E-8	1.576404E-2
3.855000E-8	1.591651E-2
3.860000E-8	1.598674E-2
3.865000E-8	1.597818E-2
3.870000E-8	1.588396E-2
3.875000E-8	1.573834E-2
3.880000E-8	1.554990E-2
3.885000E-8	1.531692E-2
3.890000E-8	1.504967E-2
3.895000E-8	1.475844E-2
3.900000E-8	1.445008E-2
3.905000E-8	1.413144E-2
3.910000E-8	1.385563E-2
3.915000E-8	1.366034E-2
3.920000E-8	1.350959E-2
3.925000E-8	1.335198E-2
3.930000E-8	1.316868E-2
3.935000E-8	1.298709E-2
3.940000E-8	1.281064E-2
3.945000E-8	1.263076E-2
3.950000E-8	1.246973E-2
3.955000E-8	1.231726E-2
3.960000E-8	1.205516E-2
3.965000E-8	1.169712E-2
3.970000E-8	1.134764E-2
3.975000E-8	1.104442E-2
3.980000E-8	1.074463E-2
3.985000E-8	1.045340E-2
3.990000E-8	1.021014E-2
3.995000E-8	1.003711E-2
4.000000E-8	9.954882E-3
4.005000E-8	9.968587E-3
4.010000E-8	1.009707E-2
4.015000E-8	1.036774E-2
4.020000E-8	1.080972E-2
4.025000E-8	1.136477E-2
4.030000E-8	1.201575E-2
4.035000E-8	1.278151E-2
4.040000E-8	1.362265E-2
4.045000E-8	1.442439E-2
4.050000E-8	1.518672E-2
4.055000E-8	1.593535E-2
4.060000E-8	1.660004E-2
4.065000E-8	1.712767E-2
4.070000E-8	1.755938E-2
4.075000E-8	1.792427E-2
4.080000E-8	1.814183E-2
4.085000E-8	1.810929E-2
4.090000E-8	1.787288E-2
4.095000E-8	1.752683E-2
4.100000E-8	1.703174E-2
4.105000E-8	1.637733E-2
4.110000E-8	1.560643E-2
4.115000E-8	1.474816E-2
4.120000E-8	1.376484E-2
4.125000E-8	1.269928E-2
4.130000E-8	1.164230E-2
4.135000E-8	1.062985E-2
4.140000E-8	9.663654E-3
4.145000E-8	8.808812E-3
4.150000E-8	8.161256E-3
4.155000E-8	7.710708E-3
4.160000E-8	7.412627E-3
4.165000E-8	7.265300E-3
4.170000E-8	7.330398E-3
4.175000E-8	7.607922E-3
4.180000E-8	8.034486E-3
4.185000E-8	8.599812E-3
4.190000E-8	9.312466E-3
4.195000E-8	1.015189E-2
4.200000E-8	1.105127E-2
4.205000E-8	1.202261E-2
4.210000E-8	1.298880E-2
4.215000E-8	1.391045E-2
4.220000E-8	1.482183E-2
4.225000E-8	1.572635E-2
4.230000E-8	1.654864E-2
4.235000E-8	1.726301E-2
4.240000E-8	1.787116E-2
4.245000E-8	1.832171E-2
4.250000E-8	1.857696E-2
4.255000E-8	1.863692E-2
4.260000E-8	1.850844E-2
4.265000E-8	1.816924E-2
4.270000E-8	1.765874E-2
4.275000E-8	1.699234E-2
4.280000E-8	1.617690E-2
4.285000E-8	1.523297E-2
4.290000E-8	1.422395E-2
4.295000E-8	1.318409E-2
4.300000E-8	1.215965E-2
4.305000E-8	1.123458E-2
4.310000E-8	1.041571E-2
4.315000E-8	9.703055E-3
4.320000E-8	9.129163E-3
4.325000E-8	8.733435E-3
4.330000E-8	8.481608E-3
4.335000E-8	8.389100E-3
4.340000E-8	8.488460E-3
4.345000E-8	8.748853E-3
4.350000E-8	9.057213E-3
4.355000E-8	9.416966E-3
4.360000E-8	9.869227E-3
4.365000E-8	1.037459E-2
4.370000E-8	1.089024E-2
4.375000E-8	1.145899E-2
4.380000E-8	1.207743E-2
4.385000E-8	1.266674E-2
4.390000E-8	1.322007E-2
4.395000E-8	1.374257E-2
4.400000E-8	1.416913E-2
4.405000E-8	1.444323E-2
4.410000E-8	1.465052E-2
4.415000E-8	1.485266E-2
4.420000E-8	1.501541E-2
4.425000E-8	1.508736E-2
4.430000E-8	1.505995E-2
4.435000E-8	1.500342E-2
4.440000E-8	1.495374E-2
4.445000E-8	1.491091E-2
4.450000E-8	1.486637E-2
4.455000E-8	1.487151E-2
4.460000E-8	1.491776E-2
4.465000E-8	1.494860E-2
4.470000E-8	1.498457E-2
4.475000E-8	1.499314E-2
4.480000E-8	1.488521E-2
4.485000E-8	1.466080E-2
4.490000E-8	1.441068E-2
4.495000E-8	1.409547E-2
4.500000E-8	1.361409E-2
4.505000E-8	1.303848E-2
4.510000E-8	1.245260E-2
4.515000E-8	1.182217E-2
4.520000E-8	1.117119E-2
4.525000E-8	1.062128E-2
4.530000E-8	1.015360E-2
4.535000E-8	9.718473E-3
4.540000E-8	9.408400E-3
4.545000E-8	9.259360E-3
4.550000E-8	9.178843E-3
4.555000E-8	9.158286E-3
4.560000E-8	9.264499E-3
4.565000E-8	9.458080E-3
4.570000E-8	9.682498E-3
4.575000E-8	1.000456E-2
4.580000E-8	1.040029E-2
4.585000E-8	1.080458E-2
4.590000E-8	1.126541E-2
4.595000E-8	1.183416E-2
4.600000E-8	1.249200E-2
4.605000E-8	1.321150E-2
4.610000E-8	1.400639E-2
4.615000E-8	1.481669E-2
4.620000E-8	1.555504E-2
4.625000E-8	1.622144E-2
4.630000E-8	1.676107E-2
4.635000E-8	1.712253E-2
4.640000E-8	1.733496E-2
4.645000E-8	1.739663E-2
4.650000E-8	1.723389E-2
4.655000E-8	1.682788E-2
4.660000E-8	1.626598E-2
4.665000E-8	1.557731E-2
4.670000E-8	1.476701E-2
4.675000E-8	1.386249E-2
4.680000E-8	1.293227E-2
4.685000E-8	1.200890E-2
4.690000E-8	1.106669E-2
4.695000E-8	1.010906E-2
4.700000E-8	9.171991E-3
4.705000E-8	8.315436E-3
4.710000E-8	7.587364E-3
4.715000E-8	7.028890E-3
4.720000E-8	6.662285E-3
4.725000E-8	6.485834E-3
4.730000E-8	6.472130E-3
4.735000E-8	6.614318E-3
4.740000E-8	6.915825E-3
4.745000E-8	7.383504E-3
4.750000E-8	8.043051E-3
4.755000E-8	8.891041E-3
4.760000E-8	9.915481E-3
4.765000E-8	1.103928E-2
4.770000E-8	1.221447E-2
4.775000E-8	1.338967E-2
4.780000E-8	1.450490E-2
4.785000E-8	1.547281E-2
4.790000E-8	1.625570E-2
4.795000E-8	1.686728E-2
4.800000E-8	1.732811E-2
4.805000E-8	1.759878E-2
4.810000E-8	1.764332E-2
4.815000E-8	1.750627E-2
4.820000E-8	1.721162E-2
4.825000E-8	1.676792E-2
4.830000E-8	1.619574E-2
4.835000E-8	1.551735E-2
4.840000E-8	1.474645E-2
4.845000E-8	1.392245E-2
4.850000E-8	1.310872E-2
4.855000E-8	1.234296E-2
4.860000E-8	1.160461E-2
4.865000E-8	1.087482E-2
4.870000E-8	1.020328E-2
4.875000E-8	9.646522E-3
4.880000E-8	9.202827E-3
4.885000E-8	8.875623E-3
4.890000E-8	8.644353E-3
4.895000E-8	8.507304E-3
4.900000E-8	8.507304E-3
4.905000E-8	8.683755E-3
4.910000E-8	8.992114E-3
4.915000E-8	9.357007E-3
4.920000E-8	9.773293E-3
4.925000E-8	1.021185E-2
4.930000E-8	1.061614E-2
4.935000E-8	1.098275E-2
4.940000E-8	1.135792E-2
4.945000E-8	1.171425E-2
4.950000E-8	1.204145E-2
4.955000E-8	1.236009E-2
4.960000E-8	1.267016E-2
4.965000E-8	1.291000E-2
4.970000E-8	1.311214E-2
4.975000E-8	1.333656E-2
4.980000E-8	1.356269E-2
4.985000E-8	1.376655E-2
4.990000E-8	1.396699E-2
4.995000E-8	1.415714E-2
5.000000E-8	1.426335E-2
5.005000E-8	1.424965E-2
5.010000E-8	1.419997E-2
5.015000E-8	1.416057E-2
5.020000E-8	1.406977E-2
5.025000E-8	1.391217E-2
5.030000E-8	1.372886E-2
5.035000E-8	1.354213E-2
5.040000E-8	1.332971E-2
5.045000E-8	1.310358E-2
5.050000E-8	1.284319E-2
5.055000E-8	1.253311E-2
5.060000E-8	1.219049E-2
5.065000E-8	1.182389E-2
5.070000E-8	1.139218E-2
5.075000E-8	1.090052E-2
5.080000E-8	1.039344E-2
5.085000E-8	9.894923E-3
5.090000E-8	9.404974E-3
5.095000E-8	8.916738E-3
5.100000E-8	8.490173E-3
5.105000E-8	8.186953E-3
5.110000E-8	8.020781E-3
5.115000E-8	7.991658E-3
5.120000E-8	8.084166E-3
5.125000E-8	8.286313E-3
5.130000E-8	8.616943E-3
5.135000E-8	9.081196E-3
5.140000E-8	9.639670E-3
5.145000E-8	1.025982E-2
5.150000E-8	1.097076E-2
5.155000E-8	1.175879E-2
5.160000E-8	1.252626E-2
5.165000E-8	1.325091E-2
5.170000E-8	1.398926E-2
5.175000E-8	1.470020E-2
5.180000E-8	1.529807E-2
5.185000E-8	1.577260E-2
5.190000E-8	1.616319E-2
5.195000E-8	1.638590E-2
5.200000E-8	1.639446E-2
5.205000E-8	1.622315E-2
5.210000E-8	1.589423E-2
5.215000E-8	1.540771E-2
5.220000E-8	1.478414E-2
5.225000E-8	1.405949E-2
5.230000E-8	1.324748E-2
5.235000E-8	1.234296E-2
5.240000E-8	1.137848E-2
5.245000E-8	1.039686E-2
5.250000E-8	9.478638E-3
5.255000E-8	8.676902E-3
5.260000E-8	7.948830E-3
5.265000E-8	7.320119E-3
5.270000E-8	6.850727E-3
5.275000E-8	6.494400E-3
5.280000E-8	6.211737E-3
5.285000E-8	6.107237E-3
5.290000E-8	6.244286E-3
5.295000E-8	6.516670E-3
5.300000E-8	6.850727E-3
5.305000E-8	7.323545E-3
5.310000E-8	7.935126E-3
5.315000E-8	8.642640E-3
5.320000E-8	9.446089E-3
5.325000E-8	1.033691E-2
5.330000E-8	1.124999E-2
5.335000E-8	1.214252E-2
5.340000E-8	1.301792E-2
5.345000E-8	1.384022E-2
5.350000E-8	1.453574E-2
5.355000E-8	1.507537E-2
5.360000E-8	1.542313E-2
5.365000E-8	1.556360E-2
5.370000E-8	1.551392E-2
5.375000E-8	1.529465E-2
5.380000E-8	1.492461E-2
5.385000E-8	1.440212E-2
5.390000E-8	1.379054E-2
5.395000E-8	1.311728E-2
5.400000E-8	1.239092E-2
5.405000E-8	1.163030E-2
5.410000E-8	1.093478E-2
5.415000E-8	1.035746E-2
5.420000E-8	9.836678E-3
5.425000E-8	9.358720E-3
5.430000E-8	9.017811E-3
5.435000E-8	8.796820E-3
5.440000E-8	8.613517E-3
5.445000E-8	8.491886E-3
5.450000E-8	8.491886E-3
5.455000E-8	8.522722E-3
5.460000E-8	8.575829E-3
5.465000E-8	8.730009E-3
5.470000E-8	8.956139E-3
5.475000E-8	9.175417E-3
5.480000E-8	9.442662E-3
5.485000E-8	9.749309E-3
5.490000E-8	1.003369E-2
5.495000E-8	1.030778E-2
5.500000E-8	1.064184E-2
5.505000E-8	1.100502E-2
5.510000E-8	1.139561E-2
5.515000E-8	1.180333E-2
5.520000E-8	1.217336E-2
5.525000E-8	1.250570E-2
5.530000E-8	1.288259E-2
5.535000E-8	1.327318E-2
5.540000E-8	1.359695E-2
5.545000E-8	1.389846E-2
5.550000E-8	1.423080E-2
5.555000E-8	1.452889E-2
5.560000E-8	1.470534E-2
5.565000E-8	1.476187E-2
5.570000E-8	1.468649E-2
5.575000E-8	1.445865E-2
5.580000E-8	1.411260E-2
5.585000E-8	1.370659E-2
5.590000E-8	1.321493E-2
5.595000E-8	1.268901E-2
5.600000E-8	1.221961E-2
5.605000E-8	1.180504E-2
5.610000E-8	1.141788E-2
5.615000E-8	1.107868E-2
5.620000E-8	1.080116E-2
5.625000E-8	1.054762E-2
5.630000E-8	1.030264E-2
5.635000E-8	1.007480E-2
5.640000E-8	9.804129E-3
5.645000E-8	9.451228E-3
5.650000E-8	9.055500E-3
5.655000E-8	8.627222E-3
5.660000E-8	8.145838E-3
5.665000E-8	7.698716E-3
5.670000E-8	7.366373E-3
5.675000E-8	7.141956E-3
5.680000E-8	7.058013E-3
5.685000E-8	7.169365E-3
5.690000E-8	7.453742E-3
5.695000E-8	7.929986E-3
5.700000E-8	8.649492E-3
5.705000E-8	9.547162E-3
5.710000E-8	1.051850E-2
5.715000E-8	1.154636E-2
5.720000E-8	1.260506E-2
5.725000E-8	1.361751E-2
5.730000E-8	1.451518E-2
5.735000E-8	1.526552E-2
5.740000E-8	1.580173E-2
5.745000E-8	1.611694E-2
5.750000E-8	1.627112E-2
5.755000E-8	1.628482E-2
5.760000E-8	1.617690E-2
5.765000E-8	1.595077E-2
5.770000E-8	1.558587E-2
5.775000E-8	1.510620E-2
5.780000E-8	1.452889E-2
5.785000E-8	1.384022E-2
5.790000E-8	1.301450E-2
5.795000E-8	1.205858E-2
5.800000E-8	1.101016E-2
5.805000E-8	9.932612E-3
5.810000E-8	8.884189E-3
5.815000E-8	7.878593E-3
5.820000E-8	6.962079E-3
5.825000E-8	6.194606E-3
5.830000E-8	5.600157E-3
5.835000E-8	5.190723E-3
5.840000E-8	4.983437E-3
5.845000E-8	4.986863E-3
5.850000E-8	5.221559E-3
5.855000E-8	5.708083E-3
5.860000E-8	6.357351E-3
5.865000E-8	7.114546E-3
5.870000E-8	8.015642E-3
5.875000E-8	9.033229E-3
5.880000E-8	1.005596E-2
5.885000E-8	1.107526E-2
5.890000E-8	1.206372E-2
5.895000E-8	1.295454E-2
5.900000E-8	1.369289E-2
5.905000E-8	1.430789E-2
5.910000E-8	1.478757E-2
5.915000E-8	1.511648E-2
5.920000E-8	1.532206E-2
5.925000E-8	1.542656E-2
5.930000E-8	1.540771E-2
5.935000E-8	1.530321E-2
5.940000E-8	1.511991E-2
5.945000E-8	1.480984E-2
5.950000E-8	1.437128E-2
5.955000E-8	1.384022E-2
5.960000E-8	1.322521E-2
5.965000E-8	1.251256E-2
5.970000E-8	1.171939E-2
5.975000E-8	1.085427E-2
5.980000E-8	9.956595E-3
5.985000E-8	9.115458E-3
5.990000E-8	8.389100E-3
5.995000E-8	7.743257E-3
6.000000E-8	7.208767E-3
6.005000E-8	6.867858E-3
6.010000E-8	6.753080E-3
6.015000E-8	6.838735E-3
6.020000E-8	7.088849E-3
6.025000E-8	7.429758E-3
6.030000E-8	7.832339E-3
6.035000E-8	8.308584E-3
6.040000E-8	8.855066E-3
6.045000E-8	9.379277E-3
6.050000E-8	9.807555E-3
6.055000E-8	1.013647E-2
6.060000E-8	1.038830E-2
6.065000E-8	1.054077E-2
6.070000E-8	1.064698E-2
6.075000E-8	1.077032E-2
6.080000E-8	1.090737E-2
6.085000E-8	1.104613E-2
6.090000E-8	1.122772E-2
6.095000E-8	1.145899E-2
6.100000E-8	1.171939E-2
6.105000E-8	1.199862E-2
6.110000E-8	1.229499E-2
6.115000E-8	1.256224E-2
6.120000E-8	1.276096E-2
6.125000E-8	1.289287E-2
6.130000E-8	1.296653E-2
6.135000E-8	1.298537E-2
6.140000E-8	1.296310E-2
6.145000E-8	1.291685E-2
6.150000E-8	1.282434E-2
6.155000E-8	1.261363E-2
6.160000E-8	1.231041E-2
6.165000E-8	1.199862E-2
6.170000E-8	1.170054E-2
6.175000E-8	1.136135E-2
6.180000E-8	1.095020E-2
6.185000E-8	1.048766E-2
6.190000E-8	1.001484E-2
6.195000E-8	9.521465E-3
6.200000E-8	8.988688E-3
6.205000E-8	8.440493E-3
6.210000E-8	7.977953E-3
6.215000E-8	7.654176E-3
6.220000E-8	7.448602E-3
6.225000E-8	7.294422E-3
6.230000E-8	7.272152E-3
6.235000E-8	7.481151E-3
6.240000E-8	7.866601E-3
6.245000E-8	8.349698E-3
6.250000E-8	8.947574E-3
6.255000E-8	9.682498E-3
6.260000E-8	1.045340E-2
6.265000E-8	1.121059E-2
6.270000E-8	1.195237E-2
6.275000E-8	1.266331E-2
6.280000E-8	1.333827E-2
6.285000E-8	1.400467E-2
6.290000E-8	1.467793E-2
6.295000E-8	1.530835E-2
6.300000E-8	1.584455E-2
6.305000E-8	1.625913E-2
6.310000E-8	1.654179E-2
6.315000E-8	1.670454E-2
6.320000E-8	1.672509E-2
6.325000E-8	1.657605E-2
6.330000E-8	1.624885E-2
6.335000E-8	1.574005E-2
6.340000E-8	1.504282E-2
6.345000E-8	1.419483E-2
6.350000E-8	1.326118E-2
6.355000E-8	1.220934E-2
6.360000E-8	1.105984E-2
6.365000E-8	9.884645E-3
6.370000E-8	8.791681E-3
6.375000E-8	7.803216E-3
6.380000E-8	6.950087E-3
6.385000E-8	6.331655E-3
6.390000E-8	5.989033E-3
6.395000E-8	5.838279E-3
6.400000E-8	5.850271E-3
6.405000E-8	6.088393E-3
6.410000E-8	6.502966E-3
6.415000E-8	7.001481E-3
6.420000E-8	7.611348E-3
6.425000E-8	8.358264E-3
6.430000E-8	9.141155E-3
6.435000E-8	9.886358E-3
6.440000E-8	1.064184E-2
6.445000E-8	1.139732E-2
6.450000E-8	1.208428E-2
6.455000E-8	1.267359E-2
6.460000E-8	1.316525E-2
6.465000E-8	1.353528E-2
6.470000E-8	1.378368E-2
6.475000E-8	1.393101E-2
6.480000E-8	1.397555E-2
6.485000E-8	1.391217E-2
6.490000E-8	1.372544E-2
6.495000E-8	1.344277E-2
6.500000E-8	1.309844E-2
6.505000E-8	1.269928E-2
6.510000E-8	1.219734E-2
6.515000E-8	1.160803E-2
6.520000E-8	1.101016E-2
6.525000E-8	1.043455E-2
6.530000E-8	9.884645E-3
6.535000E-8	9.379277E-3
6.540000E-8	8.945860E-3
6.545000E-8	8.587820E-3
6.550000E-8	8.300018E-3
6.555000E-8	8.084166E-3
6.560000E-8	7.964248E-3
6.565000E-8	7.952257E-3
6.570000E-8	8.013929E-3
6.575000E-8	8.106437E-3
6.580000E-8	8.216076E-3
6.585000E-8	8.330854E-3
6.590000E-8	8.459337E-3
6.595000E-8	8.591247E-3
6.600000E-8	8.748853E-3
6.605000E-8	8.927016E-3
6.610000E-8	9.055500E-3
6.615000E-8	9.117171E-3
6.620000E-8	9.219958E-3
6.625000E-8	9.425531E-3
6.630000E-8	9.682498E-3
6.635000E-8	9.956595E-3
6.640000E-8	1.026838E-2
6.645000E-8	1.062642E-2
6.650000E-8	1.103928E-2
6.655000E-8	1.148126E-2
6.660000E-8	1.192496E-2
6.665000E-8	1.231726E-2
6.670000E-8	1.264789E-2
6.675000E-8	1.290314E-2
6.680000E-8	1.308987E-2
6.685000E-8	1.319266E-2
6.690000E-8	1.319951E-2
6.695000E-8	1.313270E-2
6.700000E-8	1.303334E-2
6.705000E-8	1.288430E-2
6.710000E-8	1.263761E-2
6.715000E-8	1.231212E-2
6.720000E-8	1.198834E-2
6.725000E-8	1.167142E-2
6.730000E-8	1.129625E-2
6.735000E-8	1.085084E-2
6.740000E-8	1.034718E-2
6.745000E-8	9.766440E-3
6.750000E-8	9.120598E-3
6.755000E-8	8.481608E-3
6.760000E-8	7.866601E-3
6.765000E-8	7.239603E-3
6.770000E-8	6.682842E-3
6.775000E-8	6.263130E-3
6.780000E-8	5.922221E-3
6.785000E-8	5.630993E-3
6.790000E-8	5.487091E-3
6.795000E-8	5.550476E-3
6.800000E-8	5.771468E-3
6.805000E-8	6.127795E-3
6.810000E-8	6.655432E-3
6.815000E-8	7.326972E-3
6.820000E-8	8.099584E-3
6.825000E-8	8.962992E-3
6.830000E-8	9.891497E-3
6.835000E-8	1.078574E-2
6.840000E-8	1.162003E-2
6.845000E-8	1.237208E-2
6.850000E-8	1.301621E-2
6.855000E-8	1.354556E-2
6.860000E-8	1.397555E-2
6.865000E-8	1.429762E-2
6.870000E-8	1.450148E-2
6.875000E-8	1.456657E-2
6.880000E-8	1.445180E-2
6.885000E-8	1.422224E-2
6.890000E-8	1.394814E-2
6.895000E-8	1.358154E-2
6.900000E-8	1.304019E-2
6.905000E-8	1.234124E-2
6.910000E-8	1.156007E-2
6.915000E-8	1.069495E-2
6.920000E-8	9.761301E-3
6.925000E-8	8.853353E-3
6.930000E-8	8.012216E-3
6.935000E-8	7.195062E-3
6.940000E-8	6.449859E-3
6.945000E-8	5.848558E-3
6.950000E-8	5.406575E-3
6.955000E-8	5.113633E-3
6.960000E-8	5.038257E-3
6.965000E-8	5.185584E-3
6.970000E-8	5.456255E-3
6.975000E-8	5.829713E-3
6.980000E-8	6.362491E-3
6.985000E-8	7.011759E-3
6.990000E-8	7.755249E-3
6.995000E-8	8.587820E-3
7.000000E-8	9.468359E-3
7.005000E-8	1.029236E-2
7.010000E-8	1.105813E-2
7.015000E-8	1.183074E-2
7.020000E-8	1.254168E-2
7.025000E-8	1.313613E-2
7.030000E-8	1.362608E-2
7.035000E-8	1.402866E-2
7.040000E-8	1.427706E-2
7.045000E-8	1.433702E-2
7.050000E-8	1.425308E-2
7.055000E-8	1.405264E-2
7.060000E-8	1.370145E-2
7.065000E-8	1.319609E-2
7.070000E-8	1.260506E-2
7.075000E-8	1.197293E-2
7.080000E-8	1.130481E-2
7.085000E-8	1.057674E-2
7.090000E-8	9.845243E-3
7.095000E-8	9.183983E-3
7.100000E-8	8.599812E-3
7.105000E-8	8.097871E-3
7.110000E-8	7.679872E-3
7.115000E-8	7.347529E-3
7.120000E-8	7.073431E-3
7.125000E-8	6.878137E-3
7.130000E-8	6.783916E-3
7.135000E-8	6.785629E-3
7.140000E-8	6.867858E-3
7.145000E-8	7.018612E-3
7.150000E-8	7.191636E-3
7.155000E-8	7.398922E-3
7.160000E-8	7.640471E-3
7.165000E-8	7.875167E-3
7.170000E-8	8.077314E-3
7.175000E-8	8.284600E-3
7.180000E-8	8.498739E-3
7.185000E-8	8.716304E-3
7.190000E-8	8.959565E-3
7.195000E-8	9.230237E-3
7.200000E-8	9.471785E-3
7.205000E-8	9.704768E-3
7.210000E-8	9.984005E-3
7.215000E-8	1.026838E-2
7.220000E-8	1.052192E-2
7.225000E-8	1.080801E-2
7.230000E-8	1.114549E-2
7.235000E-8	1.142473E-2
7.240000E-8	1.163373E-2
7.245000E-8	1.189241E-2
7.250000E-8	1.214424E-2
7.255000E-8	1.227101E-2
7.260000E-8	1.234124E-2
7.265000E-8	1.242861E-2
7.270000E-8	1.241833E-2
7.275000E-8	1.225559E-2
7.280000E-8	1.201061E-2
7.285000E-8	1.170225E-2
7.290000E-8	1.128768E-2
7.295000E-8	1.078231E-2
7.300000E-8	1.018958E-2
7.305000E-8	9.516326E-3
7.310000E-8	8.836221E-3
7.315000E-8	8.210936E-3
7.320000E-8	7.599356E-3
7.325000E-8	7.006620E-3
7.330000E-8	6.537228E-3
7.335000E-8	6.263130E-3
7.340000E-8	6.151778E-3
7.345000E-8	6.182614E-3
7.350000E-8	6.369343E-3
7.355000E-8	6.663998E-3
7.360000E-8	7.001481E-3
7.365000E-8	7.374939E-3
7.370000E-8	7.827200E-3
7.375000E-8	8.349698E-3
7.380000E-8	8.894467E-3
7.385000E-8	9.446089E-3
7.390000E-8	9.985718E-3
7.395000E-8	1.049965E-2
7.400000E-8	1.099303E-2
7.405000E-8	1.150353E-2
7.410000E-8	1.203288E-2
7.415000E-8	1.253140E-2
7.420000E-8	1.295796E-2
7.425000E-8	1.334855E-2
7.430000E-8	1.370317E-2
7.435000E-8	1.393272E-2
7.440000E-8	1.396699E-2
7.445000E-8	1.385392E-2
7.450000E-8	1.361409E-2
7.455000E-8	1.324063E-2
7.460000E-8	1.273869E-2
7.465000E-8	1.212711E-2
7.470000E-8	1.135792E-2
7.475000E-8	1.042599E-2
7.480000E-8	9.391269E-3
7.485000E-8	8.370256E-3
7.490000E-8	7.428045E-3
7.495000E-8	6.588621E-3
7.500000E-8	5.867402E-3
7.505000E-8	5.278092E-3
7.510000E-8	4.841249E-3
7.515000E-8	4.574004E-3
7.520000E-8	4.474643E-3
7.525000E-8	4.572291E-3
7.530000E-8	4.861806E-3
7.535000E-8	5.302075E-3
7.540000E-8	5.831426E-3
7.545000E-8	6.468703E-3
7.550000E-8	7.225898E-3
7.555000E-8	8.043051E-3
7.560000E-8	8.858492E-3
7.565000E-8	9.665367E-3
7.570000E-8	1.047053E-2
7.575000E-8	1.119003E-2
7.580000E-8	1.178277E-2
7.585000E-8	1.225216E-2
7.590000E-8	1.256909E-2
7.595000E-8	1.275582E-2
7.600000E-8	1.288773E-2
7.605000E-8	1.296996E-2
7.610000E-8	1.293569E-2
7.615000E-8	1.279522E-2
7.620000E-8	1.259478E-2
7.625000E-8	1.230527E-2
7.630000E-8	1.194380E-2
7.635000E-8	1.158748E-2
7.640000E-8	1.123458E-2
7.645000E-8	1.080972E-2
7.650000E-8	1.033005E-2
7.655000E-8	9.857235E-3
7.660000E-8	9.435810E-3
7.665000E-8	9.041795E-3
7.670000E-8	8.656345E-3
7.675000E-8	8.270895E-3
7.680000E-8	7.953970E-3
7.685000E-8	7.708995E-3
7.690000E-8	7.481151E-3
7.695000E-8	7.277291E-3
7.700000E-8	7.165939E-3
7.705000E-8	7.145382E-3
7.710000E-8	7.145382E-3
7.715000E-8	7.164226E-3
7.720000E-8	7.212193E-3
7.725000E-8	7.308127E-3
7.730000E-8	7.453742E-3
7.735000E-8	7.611348E-3
7.740000E-8	7.744970E-3
7.745000E-8	7.880306E-3
7.750000E-8	8.032773E-3
7.755000E-8	8.156117E-3
7.760000E-8	8.233207E-3
7.765000E-8	8.351411E-3
7.770000E-8	8.543280E-3
7.775000E-8	8.796820E-3
7.780000E-8	9.110319E-3
7.785000E-8	9.500908E-3
7.790000E-8	9.915481E-3
7.795000E-8	1.030436E-2
7.800000E-8	1.070351E-2
7.805000E-8	1.110952E-2
7.810000E-8	1.143844E-2
7.815000E-8	1.166457E-2
7.820000E-8	1.180333E-2
7.825000E-8	1.181361E-2
7.830000E-8	1.166971E-2
7.835000E-8	1.142816E-2
7.840000E-8	1.111294E-2
7.845000E-8	1.069323E-2
7.850000E-8	1.015360E-2
7.855000E-8	9.543736E-3
7.860000E-8	8.920164E-3
7.865000E-8	8.330854E-3
7.870000E-8	7.758675E-3
7.875000E-8	7.159087E-3
7.880000E-8	6.535515E-3
7.885000E-8	5.947918E-3
7.890000E-8	5.428846E-3
7.895000E-8	4.992003E-3
7.900000E-8	4.649381E-3
7.905000E-8	4.418111E-3
7.910000E-8	4.344447E-3
7.915000E-8	4.419824E-3
7.920000E-8	4.596274E-3
7.925000E-8	4.899495E-3
7.930000E-8	5.394583E-3
7.935000E-8	6.031860E-3
7.940000E-8	6.758219E-3
7.945000E-8	7.594217E-3
7.950000E-8	8.522722E-3
7.955000E-8	9.451228E-3
7.960000E-8	1.036089E-2
7.965000E-8	1.125685E-2
7.970000E-8	1.203631E-2
7.975000E-8	1.261020E-2
7.980000E-8	1.304019E-2
7.985000E-8	1.334513E-2
7.990000E-8	1.349074E-2
7.995000E-8	1.349074E-2
8.000000E-8	1.334684E-2
8.005000E-8	1.305390E-2
8.010000E-8	1.262562E-2
8.015000E-8	1.205173E-2
8.020000E-8	1.133394E-2
8.025000E-8	1.055618E-2
8.030000E-8	9.759588E-3
8.035000E-8	8.894467E-3
8.040000E-8	7.974527E-3
8.045000E-8	7.131677E-3
8.050000E-8	6.410458E-3
8.055000E-8	5.757763E-3
8.060000E-8	5.171879E-3
8.065000E-8	4.687069E-3
8.070000E-8	4.323890E-3
8.075000E-8	4.144013E-3
8.080000E-8	4.181702E-3
8.085000E-8	4.418111E-3
8.090000E-8	4.827544E-3
8.095000E-8	5.344903E-3
8.100000E-8	5.934213E-3
8.105000E-8	6.619457E-3
8.110000E-8	7.383504E-3
8.115000E-8	8.118428E-3
8.120000E-8	8.774549E-3
8.125000E-8	9.422105E-3
8.130000E-8	1.007651E-2
8.135000E-8	1.065726E-2
8.140000E-8	1.112322E-2
8.145000E-8	1.150353E-2
8.150000E-8	1.182217E-2
8.155000E-8	1.208770E-2
8.160000E-8	1.224360E-2
8.165000E-8	1.227615E-2
8.170000E-8	1.221276E-2
8.175000E-8	1.206029E-2
8.180000E-8	1.181018E-2
8.185000E-8	1.143672E-2
8.190000E-8	1.094849E-2
8.195000E-8	1.038830E-2
8.200000E-8	9.810981E-3
8.205000E-8	9.279917E-3
8.210000E-8	8.812238E-3
8.215000E-8	8.407944E-3
8.220000E-8	8.072174E-3
8.225000E-8	7.806642E-3
8.230000E-8	7.582225E-3
8.235000E-8	7.354381E-3
8.240000E-8	7.159087E-3
8.245000E-8	7.044308E-3
8.250000E-8	6.967218E-3
8.255000E-8	6.849014E-3
8.260000E-8	6.715391E-3
8.265000E-8	6.605752E-3
8.270000E-8	6.489261E-3
8.275000E-8	6.393327E-3
8.280000E-8	6.365917E-3
8.285000E-8	6.365917E-3
8.290000E-8	6.403605E-3
8.295000E-8	6.528662E-3
8.300000E-8	6.725670E-3
8.305000E-8	6.927817E-3
8.310000E-8	7.200201E-3
8.315000E-8	7.609635E-3
8.320000E-8	8.082453E-3
8.325000E-8	8.544993E-3
8.330000E-8	9.022950E-3
8.335000E-8	9.504334E-3
8.340000E-8	9.925759E-3
8.345000E-8	1.026838E-2
8.350000E-8	1.053734E-2
8.355000E-8	1.073606E-2
8.360000E-8	1.084570E-2
8.365000E-8	1.086283E-2
8.370000E-8	1.080630E-2
8.375000E-8	1.070351E-2
8.380000E-8	1.060072E-2
8.385000E-8	1.051507E-2
8.390000E-8	1.044654E-2
8.395000E-8	1.035746E-2
8.400000E-8	1.023069E-2
8.405000E-8	1.006110E-2
8.410000E-8	9.828112E-3
8.415000E-8	9.514613E-3
8.420000E-8	9.117171E-3
8.425000E-8	8.616943E-3
8.430000E-8	8.008789E-3
8.435000E-8	7.314980E-3
8.440000E-8	6.552646E-3
8.445000E-8	5.773181E-3
8.450000E-8	5.043396E-3
8.455000E-8	4.430102E-3
8.460000E-8	3.979555E-3
8.465000E-8	3.726014E-3
8.470000E-8	3.695178E-3
8.475000E-8	3.876768E-3
8.480000E-8	4.248513E-3
8.485000E-8	4.769298E-3
8.490000E-8	5.432272E-3
8.495000E-8	6.210024E-3
8.500000E-8	7.054587E-3
8.505000E-8	7.933412E-3
8.510000E-8	8.784828E-3
8.515000E-8	9.538597E-3
8.520000E-8	1.018958E-2
8.525000E-8	1.076861E-2
8.530000E-8	1.128426E-2
8.535000E-8	1.169712E-2
8.540000E-8	1.198663E-2
8.545000E-8	1.214766E-2
8.550000E-8	1.220248E-2
8.555000E-8	1.213910E-2
8.560000E-8	1.194380E-2
8.565000E-8	1.163373E-2
8.570000E-8	1.121744E-2
8.575000E-8	1.069837E-2
8.580000E-8	1.009364E-2
8.585000E-8	9.434097E-3
8.590000E-8	8.742000E-3
8.595000E-8	8.048191E-3
8.600000E-8	7.410914E-3
8.605000E-8	6.811325E-3
8.610000E-8	6.239147E-3
8.615000E-8	5.768041E-3
8.620000E-8	5.401436E-3
8.625000E-8	5.086224E-3
8.630000E-8	4.834396E-3
8.635000E-8	4.714479E-3
8.640000E-8	4.711053E-3
8.645000E-8	4.779577E-3
8.650000E-8	4.952601E-3
8.655000E-8	5.276379E-3
8.660000E-8	5.694378E-3
8.665000E-8	6.184327E-3
8.670000E-8	6.785629E-3
8.675000E-8	7.472586E-3
8.680000E-8	8.159543E-3
8.685000E-8	8.819090E-3
8.690000E-8	9.437523E-3
8.695000E-8	9.941177E-3
8.700000E-8	1.034376E-2
8.705000E-8	1.071550E-2
8.710000E-8	1.103072E-2
8.715000E-8	1.122944E-2
8.720000E-8	1.134079E-2
8.725000E-8	1.139732E-2
8.730000E-8	1.135449E-2
8.735000E-8	1.122772E-2
8.740000E-8	1.109581E-2
8.745000E-8	1.096048E-2
8.750000E-8	1.076518E-2
8.755000E-8	1.054248E-2
8.760000E-8	1.032491E-2
8.765000E-8	1.007309E-2
8.770000E-8	9.778432E-3
8.775000E-8	9.446089E-3
8.780000E-8	9.055500E-3
8.785000E-8	8.615230E-3
8.790000E-8	8.168109E-3
8.795000E-8	7.712421E-3
8.800000E-8	7.193349E-3
8.805000E-8	6.648580E-3
8.810000E-8	6.138073E-3
8.815000E-8	5.685812E-3
8.820000E-8	5.290084E-3
8.825000E-8	5.007421E-3
8.830000E-8	4.842962E-3
8.835000E-8	4.740175E-3
8.840000E-8	4.692208E-3
8.845000E-8	4.728184E-3
8.850000E-8	4.875511E-3
8.855000E-8	5.129051E-3
8.860000E-8	5.464821E-3
8.865000E-8	5.846844E-3
8.870000E-8	6.271696E-3
8.875000E-8	6.744514E-3
8.880000E-8	7.237890E-3
8.885000E-8	7.708995E-3
8.890000E-8	8.202371E-3
8.895000E-8	8.747140E-3
8.900000E-8	9.238802E-3
8.905000E-8	9.636244E-3
8.910000E-8	1.001141E-2
8.915000E-8	1.035232E-2
8.920000E-8	1.056989E-2
8.925000E-8	1.069495E-2
8.930000E-8	1.080116E-2
8.935000E-8	1.086626E-2
8.940000E-8	1.084570E-2
8.945000E-8	1.076004E-2
8.950000E-8	1.059387E-2
8.955000E-8	1.031635E-2
8.960000E-8	9.960022E-3
8.965000E-8	9.547162E-3
8.970000E-8	9.096614E-3
8.975000E-8	8.596386E-3
8.980000E-8	8.072174E-3
8.985000E-8	7.515414E-3
8.990000E-8	6.932956E-3
8.995000E-8	6.340220E-3
9.000000E-8	5.771468E-3
9.005000E-8	5.281518E-3
9.010000E-8	4.897782E-3
9.015000E-8	4.645954E-3
9.020000E-8	4.536315E-3
9.025000E-8	4.582569E-3
9.030000E-8	4.771011E-3
9.035000E-8	5.081084E-3
9.040000E-8	5.500796E-3
9.045000E-8	5.994172E-3
9.050000E-8	6.530375E-3
9.055000E-8	7.131677E-3
9.060000E-8	7.842618E-3
9.065000E-8	8.601525E-3
9.070000E-8	9.310753E-3
9.075000E-8	9.951456E-3
9.080000E-8	1.054762E-2
9.085000E-8	1.104613E-2
9.090000E-8	1.138704E-2
9.095000E-8	1.156863E-2
9.100000E-8	1.161317E-2
9.105000E-8	1.154122E-2
9.110000E-8	1.135963E-2
9.115000E-8	1.103414E-2
9.120000E-8	1.057331E-2
9.125000E-8	1.005082E-2
9.130000E-8	9.509474E-3
9.135000E-8	8.956139E-3
9.140000E-8	8.401091E-3
9.145000E-8	7.885445E-3
9.150000E-8	7.409201E-3
9.155000E-8	6.972358E-3
9.160000E-8	6.571490E-3
9.165000E-8	6.240860E-3
9.170000E-8	6.001024E-3
9.175000E-8	5.809156E-3
9.180000E-8	5.605296E-3
9.185000E-8	5.382592E-3
9.190000E-8	5.214707E-3
9.195000E-8	5.120486E-3
9.200000E-8	5.077658E-3
9.205000E-8	5.077658E-3
9.210000E-8	5.154748E-3
9.215000E-8	5.329485E-3
9.220000E-8	5.612148E-3
9.225000E-8	5.995885E-3
9.230000E-8	6.482408E-3
9.235000E-8	7.035743E-3
9.240000E-8	7.595930E-3
9.245000E-8	8.116715E-3
9.250000E-8	8.591247E-3
9.255000E-8	9.012672E-3
9.260000E-8	9.360433E-3
9.265000E-8	9.629391E-3
9.270000E-8	9.836678E-3
9.275000E-8	9.958308E-3
9.280000E-8	9.987431E-3
9.285000E-8	9.954882E-3
9.290000E-8	9.891497E-3
9.295000E-8	9.780145E-3
9.300000E-8	9.636244E-3
9.305000E-8	9.476925E-3
9.310000E-8	9.285056E-3
9.315000E-8	9.034942E-3
9.320000E-8	8.723156E-3
9.325000E-8	8.409657E-3
9.330000E-8	8.118428E-3
9.335000E-8	7.820347E-3
9.340000E-8	7.532545E-3
9.345000E-8	7.244742E-3
9.350000E-8	6.931243E-3
9.355000E-8	6.607465E-3
9.360000E-8	6.340220E-3
9.365000E-8	6.100385E-3
9.370000E-8	5.863976E-3
9.375000E-8	5.684099E-3
9.380000E-8	5.531632E-3
9.385000E-8	5.334625E-3
9.390000E-8	5.177018E-3
9.395000E-8	5.161600E-3
9.400000E-8	5.219846E-3
9.405000E-8	5.296936E-3
9.410000E-8	5.456255E-3
9.415000E-8	5.709796E-3
9.420000E-8	5.990746E-3
9.425000E-8	6.273409E-3
9.430000E-8	6.574916E-3
9.435000E-8	6.890128E-3
9.440000E-8	7.220759E-3
9.445000E-8	7.573659E-3
9.450000E-8	7.933412E-3
9.455000E-8	8.286313E-3
9.460000E-8	8.640927E-3
9.465000E-8	8.971557E-3
9.470000E-8	9.254220E-3
9.475000E-8	9.516326E-3
9.480000E-8	9.785284E-3
9.485000E-8	1.002512E-2
9.490000E-8	1.022384E-2
9.495000E-8	1.040029E-2
9.500000E-8	1.052021E-2
9.505000E-8	1.048766E-2
9.510000E-8	1.032491E-2
9.515000E-8	1.004396E-2
9.520000E-8	9.612260E-3
9.525000E-8	9.058926E-3
9.530000E-8	8.445632E-3
9.535000E-8	7.777519E-3
9.540000E-8	7.075144E-3
9.545000E-8	6.381335E-3
9.550000E-8	5.692665E-3
9.555000E-8	5.005707E-3
9.560000E-8	4.388988E-3
9.565000E-8	3.893899E-3
9.570000E-8	3.525580E-3
9.575000E-8	3.313155E-3
9.580000E-8	3.227499E-3
9.585000E-8	3.225786E-3
9.590000E-8	3.352556E-3
9.595000E-8	3.667769E-3
9.600000E-8	4.116603E-3
9.605000E-8	4.611692E-3
9.610000E-8	5.187297E-3
9.615000E-8	5.893098E-3
9.620000E-8	6.646867E-3
9.625000E-8	7.378365E-3
9.630000E-8	8.091019E-3
9.635000E-8	8.765984E-3
9.640000E-8	9.346728E-3
9.645000E-8	9.793850E-3
9.650000E-8	1.008508E-2
9.655000E-8	1.022384E-2
9.660000E-8	1.022727E-2
9.665000E-8	1.017416E-2
9.670000E-8	1.015703E-2
9.675000E-8	1.015018E-2
9.680000E-8	1.009364E-2
9.685000E-8	9.977153E-3
9.690000E-8	9.807555E-3
9.695000E-8	9.560867E-3
9.700000E-8	9.238802E-3
9.705000E-8	8.849926E-3
9.710000E-8	8.382247E-3
9.715000E-8	7.880306E-3
9.720000E-8	7.373225E-3
9.725000E-8	6.859292E-3
9.730000E-8	6.333368E-3
9.735000E-8	5.833140E-3
9.740000E-8	5.348329E-3
9.745000E-8	4.868659E-3
9.750000E-8	4.507192E-3
9.755000E-8	4.299906E-3
9.760000E-8	4.215964E-3
9.765000E-8	4.202259E-3
9.770000E-8	4.267357E-3
9.775000E-8	4.418111E-3
9.780000E-8	4.656233E-3
9.785000E-8	4.985150E-3
9.790000E-8	5.387731E-3
9.795000E-8	5.848558E-3
9.800000E-8	6.312810E-3
9.805000E-8	6.703399E-3
9.810000E-8	7.015185E-3
9.815000E-8	7.309840E-3
9.820000E-8	7.585651E-3
9.825000E-8	7.774093E-3
9.830000E-8	7.873454E-3
9.835000E-8	7.931699E-3
9.840000E-8	7.919708E-3
9.845000E-8	7.815208E-3
9.850000E-8	7.671307E-3
9.855000E-8	7.532545E-3
9.860000E-8	7.364660E-3
9.865000E-8	7.152234E-3
9.870000E-8	6.982636E-3
9.875000E-8	6.878137E-3
9.880000E-8	6.777063E-3
9.885000E-8	6.660572E-3
9.890000E-8	6.590334E-3
9.895000E-8	6.568064E-3
9.900000E-8	6.552646E-3
9.905000E-8	6.526949E-3
9.910000E-8	6.499539E-3
9.915000E-8	6.432728E-3
9.920000E-8	6.323089E-3
9.925000E-8	6.192893E-3
9.930000E-8	5.978754E-3
9.935000E-8	5.644697E-3
9.940000E-8	5.276379E-3
9.945000E-8	4.925191E-3
9.950000E-8	4.604840E-3
9.955000E-8	4.344447E-3
9.960000E-8	4.173136E-3
9.965000E-8	4.080628E-3
9.970000E-8	4.092620E-3
9.975000E-8	4.253652E-3
9.980000E-8	4.562012E-3
9.985000E-8	4.944035E-3
9.990000E-8	5.413428E-3
9.995000E-8	5.973615E-3
1.000000E-7	6.569777E-3
1.000500E-7	7.172792E-3
1.001000E-7	7.767241E-3
1.001500E-7	8.305157E-3
1.002000E-7	8.743713E-3
1.002500E-7	9.088049E-3
1.003000E-7	9.321032E-3
1.003500E-7	9.430671E-3
1.004000E-7	9.487203E-3
1.004500E-7	9.535170E-3
1.005000E-7	9.547162E-3
1.005500E-7	9.524892E-3
1.006000E-7	9.523179E-3
1.006500E-7	9.514613E-3
1.007000E-7	9.411826E-3
1.007500E-7	9.204540E-3
1.008000E-7	8.909885E-3
1.008500E-7	8.526149E-3
1.009000E-7	8.094445E-3
1.009500E-7	7.669594E-3
1.010000E-7	7.237890E-3
1.010500E-7	6.754793E-3
1.011000E-7	6.251138E-3
1.011500E-7	5.788599E-3
1.012000E-7	5.367174E-3
1.012500E-7	4.954314E-3
1.013000E-7	4.582569E-3
1.013500E-7	4.294767E-3
1.014000E-7	4.097759E-3
1.014500E-7	3.958997E-3
1.015000E-7	3.909317E-3
1.015500E-7	3.984694E-3
1.016000E-7	4.212538E-3
1.016500E-7	4.582569E-3
1.017000E-7	5.084511E-3
1.017500E-7	5.690951E-3
1.018000E-7	6.324802E-3
1.018500E-7	6.931243E-3
1.019000E-7	7.532545E-3
1.019500E-7	8.109863E-3
1.020000E-7	8.623796E-3
1.020500E-7	9.033229E-3
1.021000E-7	9.341589E-3
1.021500E-7	9.538597E-3
1.022000E-7	9.641383E-3
1.022500E-7	9.689350E-3
1.023000E-7	9.673932E-3
1.023500E-7	9.566006E-3
1.024000E-7	9.408400E-3
1.024500E-7	9.228524E-3
1.025000E-7	9.000680E-3
1.025500E-7	8.711164E-3
1.026000E-7	8.399378E-3
1.026500E-7	8.067035E-3
1.027000E-7	7.643897E-3
1.027500E-7	7.109407E-3
1.028000E-7	6.549220E-3
1.028500E-7	6.018155E-3
1.029000E-7	5.499083E-3
1.029500E-7	4.981724E-3
1.030000E-7	4.490061E-3
1.030500E-7	4.072062E-3
1.031000E-7	3.775694E-3
1.031500E-7	3.635219E-3
1.032000E-7	3.659203E-3
1.032500E-7	3.839080E-3
1.033000E-7	4.135448E-3
1.033500E-7	4.500340E-3
1.034000E-7	4.866946E-3
1.034500E-7	5.228412E-3
1.035000E-7	5.596730E-3
1.035500E-7	5.942779E-3
1.036000E-7	6.218589E-3
1.036500E-7	6.424163E-3
1.037000E-7	6.626310E-3
1.037500E-7	6.857579E-3
1.038000E-7	7.081997E-3
1.038500E-7	7.318406E-3
1.039000E-7	7.601069E-3
1.039500E-7	7.900863E-3
1.040000E-7	8.205797E-3
1.040500E-7	8.541567E-3
1.041000E-7	8.875623E-3
1.041500E-7	9.141155E-3
1.042000E-7	9.351868E-3
1.042500E-7	9.526605E-3
1.043000E-7	9.665367E-3
1.043500E-7	9.776719E-3
1.044000E-7	9.872653E-3
1.044500E-7	9.912055E-3
1.045000E-7	9.843530E-3
1.045500E-7	9.673932E-3
1.046000E-7	9.408400E-3
1.046500E-7	9.060639E-3
1.047000E-7	8.628935E-3
1.047500E-7	8.138986E-3
1.048000E-7	7.625053E-3
1.048500E-7	7.117972E-3
1.049000E-7	6.628023E-3
1.049500E-7	6.186040E-3
1.050000E-7	5.809156E-3
1.050500E-7	5.499083E-3
1.051000E-7	5.233551E-3
1.051500E-7	4.992003E-3
1.052000E-7	4.794995E-3
1.052500E-7	4.668225E-3
1.053000E-7	4.635676E-3
1.053500E-7	4.687069E-3
1.054000E-7	4.822405E-3
1.054500E-7	5.070806E-3
1.055000E-7	5.418567E-3
1.055500E-7	5.829713E-3
1.056000E-7	6.273409E-3
1.056500E-7	6.749653E-3
1.057000E-7	7.275578E-3
1.057500E-7	7.835765E-3
1.058000E-7	8.402805E-3
1.058500E-7	8.916738E-3
1.059000E-7	9.353581E-3
1.059500E-7	9.684211E-3
1.060000E-7	9.872653E-3
1.060500E-7	9.925759E-3
1.061000E-7	9.874366E-3
1.061500E-7	9.727039E-3
1.062000E-7	9.487203E-3
1.062500E-7	9.163425E-3
1.063000E-7	8.765984E-3
1.063500E-7	8.324002E-3
1.064000E-7	7.846044E-3
1.064500E-7	7.340676E-3
1.065000E-7	6.847301E-3
1.065500E-7	6.427589E-3
1.066000E-7	6.045565E-3
1.066500E-7	5.630993E-3
1.067000E-7	5.207854E-3
1.067500E-7	4.846388E-3
1.068000E-7	4.558586E-3
1.068500E-7	4.308472E-3
1.069000E-7	4.140587E-3
1.069500E-7	4.090907E-3
1.070000E-7	4.126882E-3
1.070500E-7	4.219390E-3
1.071000E-7	4.361578E-3
1.071500E-7	4.560299E-3
1.072000E-7	4.803560E-3
1.072500E-7	5.055388E-3
1.073000E-7	5.296936E-3
1.073500E-7	5.541911E-3
1.074000E-7	5.793738E-3
1.074500E-7	6.040426E-3
1.075000E-7	6.257991E-3
1.075500E-7	6.487548E-3
1.076000E-7	6.749653E-3
1.076500E-7	7.020325E-3
1.077000E-7	7.296136E-3
1.077500E-7	7.580512E-3
1.078000E-7	7.852896E-3
1.078500E-7	8.067035E-3
1.079000E-7	8.162969E-3
1.079500E-7	8.133846E-3
1.080000E-7	8.020781E-3
1.080500E-7	7.808355E-3
1.081000E-7	7.479438E-3
1.081500E-7	7.061439E-3
1.082000E-7	6.604039E-3
1.082500E-7	6.120942E-3
1.083000E-7	5.632706E-3
1.083500E-7	5.187297E-3
1.084000E-7	4.805274E-3
1.084500E-7	4.469504E-3
1.085000E-7	4.179988E-3
1.085500E-7	3.945292E-3
1.086000E-7	3.749998E-3
1.086500E-7	3.583826E-3
1.087000E-7	3.450204E-3
1.087500E-7	3.367974E-3
1.088000E-7	3.376540E-3
1.088500E-7	3.498171E-3
1.089000E-7	3.696891E-3
1.089500E-7	3.945292E-3
1.090000E-7	4.233095E-3
1.090500E-7	4.558586E-3
1.091000E-7	4.914913E-3
1.091500E-7	5.267813E-3
1.092000E-7	5.571034E-3
1.092500E-7	5.807443E-3
1.093000E-7	5.992459E-3
1.093500E-7	6.158630E-3
1.094000E-7	6.317950E-3
1.094500E-7	6.480695E-3
1.095000E-7	6.687981E-3
1.095500E-7	6.931243E-3
1.096000E-7	7.164226E-3
1.096500E-7	7.409201E-3
1.097000E-7	7.722700E-3
1.097500E-7	8.061896E-3
1.098000E-7	8.332567E-3
1.098500E-7	8.538140E-3
1.099000E-7	8.733435E-3
1.099500E-7	8.899606E-3
1.100000E-7	8.966418E-3
1.100500E-7	8.915024E-3
1.101000E-7	8.740287E-3
1.101500E-7	8.454198E-3
1.102000E-7	8.092732E-3
1.102500E-7	7.727839E-3
1.103000E-7	7.361234E-3
1.103500E-7	6.963792E-3
1.104000E-7	6.549220E-3
1.104500E-7	6.182614E-3
1.105000E-7	5.891385E-3
1.105500E-7	5.663542E-3
1.106000E-7	5.480239E-3
1.106500E-7	5.334625E-3
1.107000E-7	5.206141E-3
1.107500E-7	5.094789E-3
1.108000E-7	4.995429E-3
1.108500E-7	4.904634E-3
1.109000E-7	4.844675E-3
1.109500E-7	4.848101E-3
1.110000E-7	4.902921E-3
1.110500E-7	5.019412E-3
1.111000E-7	5.221559E-3
1.111500E-7	5.483665E-3
1.112000E-7	5.759476E-3
1.112500E-7	6.081541E-3
1.113000E-7	6.504679E-3
1.113500E-7	6.979210E-3
1.114000E-7	7.421193E-3
1.114500E-7	7.806642E-3
1.115000E-7	8.168109E-3
1.115500E-7	8.488460E-3
1.116000E-7	8.743713E-3
1.116500E-7	8.909885E-3
1.117000E-7	8.945860E-3
1.117500E-7	8.836221E-3
1.118000E-7	8.637501E-3
1.118500E-7	8.389100E-3
1.119000E-7	8.067035E-3
1.119500E-7	7.722700E-3
1.120000E-7	7.414340E-3
1.120500E-7	7.162513E-3
1.121000E-7	6.920964E-3
1.121500E-7	6.708539E-3
1.122000E-7	6.578342E-3
1.122500E-7	6.511531E-3
1.123000E-7	6.434441E-3
1.123500E-7	6.345359E-3
1.124000E-7	6.235720E-3
1.124500E-7	6.048991E-3
1.125000E-7	5.759476E-3
1.125500E-7	5.421993E-3
1.126000E-7	5.091363E-3
1.126500E-7	4.777864E-3
1.127000E-7	4.474643E-3
1.127500E-7	4.193693E-3
1.128000E-7	3.979555E-3
1.128500E-7	3.890473E-3
1.129000E-7	3.926448E-3
1.129500E-7	4.061784E-3
1.130000E-7	4.330742E-3
1.130500E-7	4.747028E-3
1.131000E-7	5.230125E-3
1.131500E-7	5.718361E-3
1.132000E-7	6.263130E-3
1.132500E-7	6.837022E-3
1.133000E-7	7.335537E-3
1.133500E-7	7.779233E-3
1.134000E-7	8.228067E-3
1.134500E-7	8.587820E-3
1.135000E-7	8.796820E-3
1.135500E-7	8.925303E-3
1.136000E-7	8.962992E-3
1.136500E-7	8.832795E-3
1.137000E-7	8.562124E-3
1.137500E-7	8.260616E-3
1.138000E-7	7.924847E-3
1.138500E-7	7.513701E-3
1.139000E-7	7.080284E-3
1.139500E-7	6.624596E-3
1.140000E-7	6.115803E-3
1.140500E-7	5.595017E-3
1.141000E-7	5.113633E-3
1.141500E-7	4.673364E-3
1.142000E-7	4.274209E-3
1.142500E-7	3.972702E-3
1.143000E-7	3.816809E-3
1.143500E-7	3.797965E-3
1.144000E-7	3.844219E-3
1.144500E-7	3.950432E-3
1.145000E-7	4.159431E-3
1.145500E-7	4.442094E-3
1.146000E-7	4.697348E-3
1.146500E-7	4.901208E-3
1.147000E-7	5.099928E-3
1.147500E-7	5.284944E-3
1.148000E-7	5.401436E-3
1.148500E-7	5.461395E-3
1.149000E-7	5.499083E-3
1.149500E-7	5.502509E-3
1.150000E-7	5.459682E-3
1.150500E-7	5.425419E-3
1.151000E-7	5.447690E-3
1.151500E-7	5.526493E-3
1.152000E-7	5.656689E-3
1.152500E-7	5.862262E-3
1.153000E-7	6.100385E-3
1.153500E-7	6.305958E-3
1.154000E-7	6.477269E-3
1.154500E-7	6.662285E-3
1.155000E-7	6.847301E-3
1.155500E-7	6.970645E-3
1.156000E-7	6.998054E-3
1.156500E-7	6.934669E-3
1.157000E-7	6.806186E-3
1.157500E-7	6.604039E-3
1.158000E-7	6.329941E-3
1.158500E-7	6.028434E-3
1.159000E-7	5.745771E-3
1.159500E-7	5.481952E-3
1.160000E-7	5.216420E-3
1.160500E-7	4.968019E-3
1.161000E-7	4.745315E-3
1.161500E-7	4.543168E-3
1.162000E-7	4.373570E-3
1.162500E-7	4.241660E-3
1.163000E-7	4.164570E-3
1.163500E-7	4.186841E-3
1.164000E-7	4.334168E-3
1.164500E-7	4.558586E-3
1.165000E-7	4.806987E-3
1.165500E-7	5.106781E-3
1.166000E-7	5.459682E-3
1.166500E-7	5.795451E-3
1.167000E-7	6.078114E-3
1.167500E-7	6.343646E-3
1.168000E-7	6.576629E-3
1.168500E-7	6.766785E-3
1.169000E-7	6.926104E-3
1.169500E-7	7.076857E-3
1.170000E-7	7.191636E-3
1.170500E-7	7.256734E-3
1.171000E-7	7.335537E-3
1.171500E-7	7.455455E-3
1.172000E-7	7.556528E-3
1.172500E-7	7.602782E-3
1.173000E-7	7.619913E-3
1.173500E-7	7.566807E-3
1.174000E-7	7.412627E-3
1.174500E-7	7.176218E-3
1.175000E-7	6.890128E-3
1.175500E-7	6.492687E-3
1.176000E-7	5.985606E-3
1.176500E-7	5.447690E-3
1.177000E-7	4.932044E-3
1.177500E-7	4.412971E-3
1.178000E-7	3.904178E-3
1.178500E-7	3.475900E-3
1.179000E-7	3.188098E-3
1.179500E-7	2.987664E-3
1.180000E-7	2.874599E-3
1.180500E-7	2.874599E-3
1.181000E-7	3.021926E-3
1.181500E-7	3.254909E-3
1.182000E-7	3.493031E-3
1.182500E-7	3.720875E-3
1.183000E-7	3.976128E-3
1.183500E-7	4.275923E-3
1.184000E-7	4.594561E-3
1.184500E-7	4.902921E-3
1.185000E-7	5.204428E-3
1.185500E-7	5.497370E-3
1.186000E-7	5.773181E-3
1.186500E-7	6.054131E-3
1.187000E-7	6.362491E-3
1.187500E-7	6.660572E-3
1.188000E-7	6.876424E-3
1.188500E-7	7.016899E-3
1.189000E-7	7.141956E-3
1.189500E-7	7.279004E-3
1.190000E-7	7.397209E-3
1.190500E-7	7.457168E-3
1.191000E-7	7.458881E-3
1.191500E-7	7.414340E-3
1.192000E-7	7.318406E-3
1.192500E-7	7.167652E-3
1.193000E-7	6.970645E-3
1.193500E-7	6.703399E-3
1.194000E-7	6.384761E-3
1.194500E-7	6.078114E-3
1.195000E-7	5.816008E-3
1.195500E-7	5.557329E-3
1.196000E-7	5.296936E-3
1.196500E-7	5.084511E-3
1.197000E-7	4.923478E-3
1.197500E-7	4.769298E-3
1.198000E-7	4.606553E-3
1.198500E-7	4.431816E-3
1.199000E-7	4.221103E-3
1.199500E-7	4.030948E-3
1.200000E-7	3.887047E-3
1.200500E-7	3.768842E-3
1.201000E-7	3.669482E-3
1.201500E-7	3.642072E-3
1.202000E-7	3.700318E-3
1.202500E-7	3.830514E-3
1.203000E-7	4.034374E-3
1.203500E-7	4.311898E-3
1.204000E-7	4.661372E-3
1.204500E-7	5.069093E-3
1.205000E-7	5.490518E-3
1.205500E-7	5.899951E-3
1.206000E-7	6.285401E-3
1.206500E-7	6.617744E-3
1.207000E-7	6.886702E-3
1.207500E-7	7.140243E-3
1.208000E-7	7.352668E-3
1.208500E-7	7.436611E-3
1.209000E-7	7.366373E-3
1.209500E-7	7.171078E-3
1.210000E-7	6.850727E-3
1.210500E-7	6.437867E-3
1.211000E-7	6.030147E-3
1.211500E-7	5.685812E-3
1.212000E-7	5.389444E-3
1.212500E-7	5.115346E-3
1.213000E-7	4.854954E-3
1.213500E-7	4.640815E-3
1.214000E-7	4.512332E-3
1.214500E-7	4.472930E-3
1.215000E-7	4.488348E-3
1.215500E-7	4.543168E-3
1.216000E-7	4.608266E-3
1.216500E-7	4.639102E-3
1.217000E-7	4.633963E-3
1.217500E-7	4.616831E-3
1.218000E-7	4.574004E-3
1.218500E-7	4.464365E-3
1.219000E-7	4.279349E-3
1.219500E-7	4.063497E-3
1.220000E-7	3.859637E-3
1.220500E-7	3.698605E-3
1.221000E-7	3.606097E-3
1.221500E-7	3.570121E-3
1.222000E-7	3.585539E-3
1.222500E-7	3.678047E-3
1.223000E-7	3.845932E-3
1.223500E-7	4.082341E-3
1.224000E-7	4.433529E-3
1.224500E-7	4.880650E-3
1.225000E-7	5.324346E-3
1.225500E-7	5.735492E-3
1.226000E-7	6.151778E-3
1.226500E-7	6.549220E-3
1.227000E-7	6.818178E-3
1.227500E-7	6.963792E-3
1.228000E-7	7.052874E-3
1.228500E-7	7.063153E-3
1.229000E-7	7.001481E-3
1.229500E-7	6.893555E-3
1.230000E-7	6.787342E-3
1.230500E-7	6.681129E-3
1.231000E-7	6.562924E-3
1.231500E-7	6.407031E-3
1.232000E-7	6.220302E-3
1.232500E-7	6.066123E-3
1.233000E-7	5.961623E-3
1.233500E-7	5.841705E-3
1.234000E-7	5.673820E-3
1.234500E-7	5.483665E-3
1.235000E-7	5.291797E-3
1.235500E-7	5.086224E-3
1.236000E-7	4.865232E-3
1.236500E-7	4.668225E-3
1.237000E-7	4.520897E-3
1.237500E-7	4.416398E-3
1.238000E-7	4.337595E-3
1.238500E-7	4.287914E-3
1.239000E-7	4.282775E-3
1.239500E-7	4.347873E-3
1.240000E-7	4.478070E-3
1.240500E-7	4.627110E-3
1.241000E-7	4.764159E-3
1.241500E-7	4.902921E-3
1.242000E-7	5.033117E-3
1.242500E-7	5.142756E-3
1.243000E-7	5.240404E-3
1.243500E-7	5.356895E-3
1.244000E-7	5.519640E-3
1.244500E-7	5.706369E-3
1.245000E-7	5.906803E-3
1.245500E-7	6.120942E-3
1.246000E-7	6.319663E-3
1.246500E-7	6.475556E-3
1.247000E-7	6.600613E-3
1.247500E-7	6.715391E-3
1.248000E-7	6.780489E-3
1.248500E-7	6.783916E-3
1.249000E-7	6.715391E-3
1.249500E-7	6.571490E-3
1.250000E-7	6.324802E-3
1.250500E-7	5.985606E-3
1.251000E-7	5.601870E-3
1.251500E-7	5.242117E-3
1.252000E-7	4.930331E-3
1.252500E-7	4.645954E-3
1.253000E-7	4.378709E-3
1.253500E-7	4.156005E-3
1.254000E-7	3.957284E-3
1.254500E-7	3.782547E-3
1.255000E-7	3.664342E-3
1.255500E-7	3.624941E-3
1.256000E-7	3.614662E-3
1.256500E-7	3.616375E-3
1.257000E-7	3.636933E-3
1.257500E-7	3.678047E-3
1.258000E-7	3.751711E-3
1.258500E-7	3.912743E-3
1.259000E-7	4.150866E-3
1.259500E-7	4.406119E-3
1.260000E-7	4.687069E-3
1.260500E-7	5.009134E-3
1.261000E-7	5.338051E-3
1.261500E-7	5.636132E-3
1.262000E-7	5.923934E-3
1.262500E-7	6.196319E-3
1.263000E-7	6.424163E-3
1.263500E-7	6.612605E-3
1.264000E-7	6.771924E-3
1.264500E-7	6.900407E-3
1.265000E-7	7.006620E-3
1.265500E-7	7.092275E-3
1.266000E-7	7.135103E-3
1.266500E-7	7.131677E-3
1.267000E-7	7.090562E-3
1.267500E-7	7.003194E-3
1.268000E-7	6.835309E-3
1.268500E-7	6.614318E-3
1.269000E-7	6.376195E-3
1.269500E-7	6.105524E-3
1.270000E-7	5.800590E-3
1.270500E-7	5.490518E-3
1.271000E-7	5.185584E-3
1.271500E-7	4.868659E-3
1.272000E-7	4.597987E-3
1.272500E-7	4.390701E-3
1.273000E-7	4.190267E-3
1.273500E-7	3.981268E-3
1.274000E-7	3.811670E-3
1.274500E-7	3.698605E-3
1.275000E-7	3.631793E-3
1.275500E-7	3.592392E-3
1.276000E-7	3.520441E-3
1.276500E-7	3.434786E-3
1.277000E-7	3.429646E-3
1.277500E-7	3.511876E-3
1.278000E-7	3.604383E-3
1.278500E-7	3.729440E-3
1.279000E-7	3.912743E-3
1.279500E-7	4.121743E-3
1.280000E-7	4.323890E-3
1.280500E-7	4.558586E-3
1.281000E-7	4.817265E-3
1.281500E-7	5.091363E-3
1.282000E-7	5.384305E-3
1.282500E-7	5.699517E-3
1.283000E-7	6.019869E-3
1.283500E-7	6.316237E-3
1.284000E-7	6.580056E-3
1.284500E-7	6.780489E-3
1.285000E-7	6.902120E-3
1.285500E-7	6.943235E-3
1.286000E-7	6.903833E-3
1.286500E-7	6.775350E-3
1.287000E-7	6.547506E-3
1.287500E-7	6.244286E-3
1.288000E-7	5.881107E-3
1.288500E-7	5.502509E-3
1.289000E-7	5.132478E-3
1.289500E-7	4.753880E-3
1.290000E-7	4.368431E-3
1.290500E-7	4.042940E-3
1.291000E-7	3.840793E-3
1.291500E-7	3.739719E-3
1.292000E-7	3.719162E-3
1.292500E-7	3.761990E-3
1.293000E-7	3.830514E-3
1.293500E-7	3.887047E-3
1.294000E-7	3.969276E-3
1.294500E-7	4.096046E-3
1.295000E-7	4.212538E-3
1.295500E-7	4.289627E-3
1.296000E-7	4.390701E-3
1.296500E-7	4.544881E-3
1.297000E-7	4.726471E-3
1.297500E-7	4.940609E-3
1.298000E-7	5.173592E-3
1.298500E-7	5.406575E-3
1.299000E-7	5.653263E-3
1.299500E-7	5.896525E-3
1.300000E-7	6.088393E-3
1.300500E-7	6.232294E-3
1.301000E-7	6.367630E-3
1.301500E-7	6.454999E-3
1.302000E-7	6.473843E-3
1.302500E-7	6.456712E-3
1.303000E-7	6.403605E-3
1.303500E-7	6.275122E-3
1.304000E-7	6.067836E-3
1.304500E-7	5.884533E-3
1.305000E-7	5.785173E-3
1.305500E-7	5.720074E-3
1.306000E-7	5.624140E-3
1.306500E-7	5.517927E-3
1.307000E-7	5.471673E-3
1.307500E-7	5.457968E-3
1.308000E-7	5.415141E-3
1.308500E-7	5.334625E-3
1.309000E-7	5.230125E-3
1.309500E-7	5.106781E-3
1.310000E-7	4.962880E-3
1.310500E-7	4.779577E-3
1.311000E-7	4.532889E-3
1.311500E-7	4.234808E-3
1.312000E-7	3.945292E-3
1.312500E-7	3.732867E-3
1.313000E-7	3.578687E-3
1.313500E-7	3.457056E-3
1.314000E-7	3.391958E-3
1.314500E-7	3.400523E-3
1.315000E-7	3.458769E-3
1.315500E-7	3.578687E-3
1.316000E-7	3.806530E-3
1.316500E-7	4.099472E-3
1.317000E-7	4.383849E-3
1.317500E-7	4.654520E-3
1.318000E-7	4.950888E-3
1.318500E-7	5.224986E-3
1.319000E-7	5.442550E-3
1.319500E-7	5.660115E-3
1.320000E-7	5.886246E-3
1.320500E-7	6.040426E-3
1.321000E-7	6.119229E-3
1.321500E-7	6.160344E-3
1.322000E-7	6.196319E-3
1.322500E-7	6.216876E-3
1.323000E-7	6.216876E-3
1.323500E-7	6.198032E-3
1.324000E-7	6.180901E-3
1.324500E-7	6.191180E-3
1.325000E-7	6.194606E-3
1.325500E-7	6.138073E-3
1.326000E-7	6.062696E-3
1.326500E-7	6.007877E-3
1.327000E-7	5.908516E-3
1.327500E-7	5.711509E-3
1.328000E-7	5.480239E-3
1.328500E-7	5.272953E-3
1.329000E-7	5.081084E-3
1.329500E-7	4.916626E-3
1.330000E-7	4.806987E-3
1.330500E-7	4.743602E-3
1.331000E-7	4.678503E-3
1.331500E-7	4.594561E-3
1.332000E-7	4.515758E-3
1.332500E-7	4.467791E-3
1.333000E-7	4.467791E-3
1.333500E-7	4.495201E-3
1.334000E-7	4.553446E-3
1.334500E-7	4.637389E-3
1.335000E-7	4.745315E-3
1.335500E-7	4.837823E-3
1.336000E-7	4.908060E-3
1.336500E-7	4.954314E-3
1.337000E-7	4.990289E-3
1.337500E-7	5.033117E-3
1.338000E-7	5.096502E-3
1.338500E-7	5.153035E-3
1.339000E-7	5.199289E-3
1.339500E-7	5.254108E-3
1.340000E-7	5.327772E-3
1.340500E-7	5.375739E-3
1.341000E-7	5.375739E-3
1.341500E-7	5.319207E-3
1.342000E-7	5.248969E-3
1.342500E-7	5.201002E-3
1.343000E-7	5.156461E-3
1.343500E-7	5.062240E-3
1.344000E-7	4.930331E-3
1.344500E-7	4.786429E-3
1.345000E-7	4.645954E-3
1.345500E-7	4.532889E-3
1.346000E-7	4.448947E-3
1.346500E-7	4.363291E-3
1.347000E-7	4.289627E-3
1.347500E-7	4.238234E-3
1.348000E-7	4.190267E-3
1.348500E-7	4.120030E-3
1.349000E-7	4.053218E-3
1.349500E-7	4.020669E-3
1.350000E-7	4.027522E-3
1.350500E-7	4.065210E-3
1.351000E-7	4.128595E-3
1.351500E-7	4.205685E-3
1.352000E-7	4.301619E-3
1.352500E-7	4.416398E-3
1.353000E-7	4.522610E-3
1.353500E-7	4.604840E-3
1.354000E-7	4.681930E-3
1.354500E-7	4.771011E-3
1.355000E-7	4.851528E-3
1.355500E-7	4.894355E-3
1.356000E-7	4.904634E-3
1.356500E-7	4.884077E-3
1.357000E-7	4.856667E-3
1.357500E-7	4.882364E-3
1.358000E-7	4.937183E-3
1.358500E-7	4.983437E-3
1.359000E-7	5.046822E-3
1.359500E-7	5.171879E-3
1.360000E-7	5.315780E-3
1.360500E-7	5.437411E-3
1.361000E-7	5.567608E-3
1.361500E-7	5.673820E-3
1.362000E-7	5.708083E-3
1.362500E-7	5.656689E-3
1.363000E-7	5.547050E-3
1.363500E-7	5.384305E-3
1.364000E-7	5.180445E-3
1.364500E-7	4.937183E-3
1.365000E-7	4.666512E-3
1.365500E-7	4.392414E-3
1.366000E-7	4.162857E-3
1.366500E-7	3.960710E-3
1.367000E-7	3.773981E-3
1.367500E-7	3.636933E-3
1.368000E-7	3.583826E-3
1.368500E-7	3.588965E-3
1.369000E-7	3.626654E-3
1.369500E-7	3.690039E-3
1.370000E-7	3.765416E-3
1.370500E-7	3.818522E-3
1.371000E-7	3.847645E-3
1.371500E-7	3.895612E-3
1.372000E-7	3.994973E-3
1.372500E-7	4.114890E-3
1.373000E-7	4.243373E-3
1.373500E-7	4.376996E-3
1.374000E-7	4.522610E-3
1.374500E-7	4.659659E-3
1.375000E-7	4.755593E-3
1.375500E-7	4.774438E-3
1.376000E-7	4.764159E-3
1.376500E-7	4.789856E-3
1.377000E-7	4.829257E-3
1.377500E-7	4.808700E-3
1.378000E-7	4.714479E-3
1.378500E-7	4.597987E-3
1.379000E-7	4.493488E-3
1.379500E-7	4.397553E-3
1.380000E-7	4.356439E-3
1.380500E-7	4.370144E-3
1.381000E-7	4.380422E-3
1.381500E-7	4.361578E-3
1.382000E-7	4.349586E-3
1.382500E-7	4.354726E-3
1.383000E-7	4.342734E-3
1.383500E-7	4.306759E-3
1.384000E-7	4.241660E-3
1.384500E-7	4.171423E-3
1.385000E-7	4.128595E-3
1.385500E-7	4.123456E-3
1.386000E-7	4.099472E-3
1.386500E-7	4.058358E-3
1.387000E-7	4.048079E-3
1.387500E-7	4.078915E-3
1.388000E-7	4.089194E-3
1.388500E-7	4.101185E-3
1.389000E-7	4.173136E-3
1.389500E-7	4.275923E-3
1.390000E-7	4.359865E-3
1.390500E-7	4.459225E-3
1.391000E-7	4.577430E-3
1.391500E-7	4.661372E-3
1.392000E-7	4.721331E-3
1.392500E-7	4.800134E-3
1.393000E-7	4.904634E-3
1.393500E-7	5.012560E-3
1.394000E-7	5.134191E-3
1.394500E-7	5.276379E-3
1.395000E-7	5.427133E-3
1.395500E-7	5.569321E-3
1.396000E-7	5.684099E-3
1.396500E-7	5.778320E-3
1.397000E-7	5.882820E-3
1.397500E-7	5.980467E-3
1.398000E-7	6.009590E-3
1.398500E-7	5.946205E-3
1.399000E-7	5.786886E-3
1.399500E-7	5.531632E-3
1.400000E-7	5.189010E-3
1.400500E-7	4.830970E-3
1.401000E-7	4.467791E-3
1.401500E-7	4.075489E-3
1.402000E-7	3.700318E-3
1.402500E-7	3.376540E-3
1.403000E-7	3.099016E-3
1.403500E-7	2.872885E-3
1.404000E-7	2.752968E-3
1.404500E-7	2.732410E-3
1.405000E-7	2.771812E-3
1.405500E-7	2.881451E-3
1.406000E-7	3.078459E-3
1.406500E-7	3.325147E-3
1.407000E-7	3.566695E-3
1.407500E-7	3.830514E-3
1.408000E-7	4.092620E-3
1.408500E-7	4.335881E-3
1.409000E-7	4.548307E-3
1.409500E-7	4.731610E-3
1.410000E-7	4.848101E-3
1.410500E-7	4.911486E-3
1.411000E-7	4.976585E-3
1.411500E-7	5.074232E-3
1.412000E-7	5.192436E-3
1.412500E-7	5.315780E-3
1.413000E-7	5.445977E-3
1.413500E-7	5.555616E-3
1.414000E-7	5.608722E-3
1.414500E-7	5.615575E-3
1.415000E-7	5.577886E-3
1.415500E-7	5.493944E-3
1.416000E-7	5.396297E-3
1.416500E-7	5.305502E-3
1.417000E-7	5.221559E-3
1.417500E-7	5.166740E-3
1.418000E-7	5.177018E-3
1.418500E-7	5.194150E-3
1.419000E-7	5.168453E-3
1.419500E-7	5.151322E-3
1.420000E-7	5.183871E-3
1.420500E-7	5.197576E-3
1.421000E-7	5.144469E-3
1.421500E-7	5.051961E-3
1.422000E-7	4.902921E-3
1.422500E-7	4.675077E-3
1.423000E-7	4.424963E-3
1.423500E-7	4.173136E-3
1.424000E-7	3.899038E-3
1.424500E-7	3.662629E-3
1.425000E-7	3.542711E-3
1.425500E-7	3.510162E-3
1.426000E-7	3.513589E-3
1.426500E-7	3.580400E-3
1.427000E-7	3.734580E-3
1.427500E-7	3.912743E-3
1.428000E-7	4.094333E-3
1.428500E-7	4.313611E-3
1.429000E-7	4.575717E-3
1.429500E-7	4.829257E-3
1.430000E-7	5.026265E-3
1.430500E-7	5.182158E-3
1.431000E-7	5.329485E-3
1.431500E-7	5.439124E-3
1.432000E-7	5.475100E-3
1.432500E-7	5.461395E-3
1.433000E-7	5.410001E-3
1.433500E-7	5.315780E-3
1.434000E-7	5.192436E-3
1.434500E-7	5.067379E-3
1.435000E-7	4.916626E-3
1.435500E-7	4.709339E-3
1.436000E-7	4.496914E-3
1.436500E-7	4.335881E-3
1.437000E-7	4.191980E-3
1.437500E-7	4.044653E-3
1.438000E-7	3.912743E-3
1.438500E-7	3.818522E-3
1.439000E-7	3.743145E-3
1.439500E-7	3.700318E-3
1.440000E-7	3.715736E-3
1.440500E-7	3.782547E-3
1.441000E-7	3.839080E-3
1.441500E-7	3.878481E-3
1.442000E-7	3.935014E-3
1.442500E-7	4.012104E-3
1.443000E-7	4.109751E-3
1.443500E-7	4.207398E-3
1.444000E-7	4.313611E-3
1.444500E-7	4.443807E-3
1.445000E-7	4.570578E-3
1.445500E-7	4.608266E-3
1.446000E-7	4.553446E-3
1.446500E-7	4.496914E-3
1.447000E-7	4.464365E-3
1.447500E-7	4.409545E-3
1.448000E-7	4.346160E-3
1.448500E-7	4.317037E-3
1.449000E-7	4.305045E-3
1.449500E-7	4.277636E-3
1.450000E-7	4.263931E-3
1.450500E-7	4.284488E-3
1.451000E-7	4.315324E-3
1.451500E-7	4.330742E-3
1.452000E-7	4.366717E-3
1.452500E-7	4.424963E-3
1.453000E-7	4.454086E-3
1.453500E-7	4.388988E-3
1.454000E-7	4.260505E-3
1.454500E-7	4.130308E-3
1.455000E-7	3.994973E-3
1.455500E-7	3.869916E-3
1.456000E-7	3.789399E-3
1.456500E-7	3.746572E-3
1.457000E-7	3.707170E-3
1.457500E-7	3.667769E-3
1.458000E-7	3.630080E-3
1.458500E-7	3.611236E-3
1.459000E-7	3.609523E-3
1.459500E-7	3.614662E-3
1.460000E-7	3.587252E-3
1.460500E-7	3.532433E-3
1.461000E-7	3.474187E-3
1.461500E-7	3.373114E-3
1.462000E-7	3.224073E-3
1.462500E-7	3.076746E-3
1.463000E-7	2.991090E-3
1.463500E-7	2.985951E-3
1.464000E-7	3.032205E-3
1.464500E-7	3.104155E-3
1.465000E-7	3.205229E-3
1.465500E-7	3.376540E-3
1.466000E-7	3.600957E-3
1.466500E-7	3.845932E-3
1.467000E-7	4.085767E-3
1.467500E-7	4.279349E-3
1.468000E-7	4.376996E-3
1.468500E-7	4.376996E-3
1.469000E-7	4.317037E-3
1.469500E-7	4.186841E-3
1.470000E-7	3.989833E-3
1.470500E-7	3.780834E-3
1.471000E-7	3.599244E-3
1.471500E-7	3.453630E-3
1.472000E-7	3.366261E-3
1.472500E-7	3.326860E-3
1.473000E-7	3.299450E-3
1.473500E-7	3.266901E-3
1.474000E-7	3.246343E-3
1.474500E-7	3.229212E-3
1.475000E-7	3.174393E-3
1.475500E-7	3.080172E-3
1.476000E-7	2.973959E-3
1.476500E-7	2.862607E-3
1.477000E-7	2.727271E-3
1.477500E-7	2.595362E-3
1.478000E-7	2.518272E-3
1.478500E-7	2.506280E-3
1.479000E-7	2.521698E-3
1.479500E-7	2.564526E-3
1.480000E-7	2.645042E-3
1.480500E-7	2.782091E-3
1.481000E-7	3.001369E-3
1.481500E-7	3.270327E-3
1.482000E-7	3.498171E-3
1.482500E-7	3.686613E-3
1.483000E-7	3.892186E-3
1.483500E-7	4.087480E-3
1.484000E-7	4.198833E-3
1.484500E-7	4.272496E-3
1.485000E-7	4.404406E-3
1.485500E-7	4.567151E-3
1.486000E-7	4.687069E-3
1.486500E-7	4.794995E-3
1.487000E-7	4.949175E-3
1.487500E-7	5.060527E-3
1.488000E-7	5.077658E-3
1.488500E-7	5.070806E-3
1.489000E-7	5.086224E-3
1.489500E-7	5.062240E-3
1.490000E-7	4.966306E-3
1.490500E-7	4.848101E-3
1.491000E-7	4.716192E-3
1.491500E-7	4.541455E-3
1.492000E-7	4.332455E-3
1.492500E-7	4.120030E-3
1.493000E-7	3.917883E-3
1.493500E-7	3.777408E-3
1.494000E-7	3.703744E-3
1.494500E-7	3.645498E-3
1.495000E-7	3.619801E-3
1.495500E-7	3.647211E-3
1.496000E-7	3.684900E-3
1.496500E-7	3.736293E-3
1.497000E-7	3.828801E-3
1.497500E-7	3.926448E-3
1.498000E-7	3.962423E-3
1.498500E-7	3.996686E-3
1.499000E-7	4.042940E-3
1.499500E-7	4.029235E-3
1.500000E-7	3.976128E-3
1.500500E-7	3.950432E-3
1.501000E-7	3.945292E-3
1.501500E-7	3.935014E-3
1.502000E-7	3.952145E-3
1.502500E-7	4.015530E-3
1.503000E-7	4.108038E-3
1.503500E-7	4.209111E-3
1.504000E-7	4.301619E-3
1.504500E-7	4.418111E-3
1.505000E-7	4.556873E-3
1.505500E-7	4.681930E-3
1.506000E-7	4.764159E-3
1.506500E-7	4.796708E-3
1.507000E-7	4.767585E-3
1.507500E-7	4.681930E-3
1.508000E-7	4.572291E-3
1.508500E-7	4.452373E-3
1.509000E-7	4.305045E-3
1.509500E-7	4.186841E-3
1.510000E-7	4.090907E-3
1.510500E-7	3.976128E-3
1.511000E-7	3.881907E-3
1.511500E-7	3.856211E-3
1.512000E-7	3.827088E-3
1.512500E-7	3.755137E-3
1.513000E-7	3.695178E-3
1.513500E-7	3.679760E-3
1.514000E-7	3.645498E-3
1.514500E-7	3.611236E-3
1.515000E-7	3.630080E-3
1.515500E-7	3.672908E-3
1.516000E-7	3.708883E-3
1.516500E-7	3.739719E-3
1.517000E-7	3.785973E-3
1.517500E-7	3.847645E-3
1.518000E-7	3.948719E-3
1.518500E-7	4.097759E-3
1.519000E-7	4.255365E-3
1.519500E-7	4.361578E-3
1.520000E-7	4.428389E-3
1.520500E-7	4.476356E-3
1.521000E-7	4.495201E-3
1.521500E-7	4.469504E-3
1.522000E-7	4.424963E-3
1.522500E-7	4.353013E-3
1.523000E-7	4.236521E-3
1.523500E-7	4.061784E-3
1.524000E-7	3.892186E-3
1.524500E-7	3.768842E-3
1.525000E-7	3.667769E-3
1.525500E-7	3.597531E-3
1.526000E-7	3.547851E-3
1.526500E-7	3.520441E-3
1.527000E-7	3.518728E-3
1.527500E-7	3.559843E-3
1.528000E-7	3.619801E-3
1.528500E-7	3.695178E-3
1.529000E-7	3.782547E-3
1.529500E-7	3.873342E-3
1.530000E-7	3.924735E-3
1.530500E-7	3.914456E-3
1.531000E-7	3.868202E-3
1.531500E-7	3.797965E-3
1.532000E-7	3.703744E-3
1.532500E-7	3.599244E-3
1.533000E-7	3.520441E-3
1.533500E-7	3.510162E-3
1.534000E-7	3.552990E-3
1.534500E-7	3.609523E-3
1.535000E-7	3.669482E-3
1.535500E-7	3.763703E-3
1.536000E-7	3.890473E-3
1.536500E-7	3.996686E-3
1.537000E-7	4.077202E-3
1.537500E-7	4.142300E-3
1.538000E-7	4.167997E-3
1.538500E-7	4.104612E-3
1.539000E-7	3.950432E-3
1.539500E-7	3.729440E-3
1.540000E-7	3.457056E-3
1.540500E-7	3.186385E-3
1.541000E-7	2.934557E-3
1.541500E-7	2.746115E-3
1.542000E-7	2.662173E-3
1.542500E-7	2.691296E-3
1.543000E-7	2.800935E-3
1.543500E-7	2.977385E-3
1.544000E-7	3.234352E-3
1.544500E-7	3.532433E-3
1.545000E-7	3.873342E-3
1.545500E-7	4.239947E-3
1.546000E-7	4.606553E-3
1.546500E-7	4.916626E-3
1.547000E-7	5.173592E-3
1.547500E-7	5.384305E-3
1.548000E-7	5.535058E-3
1.548500E-7	5.615575E-3
1.549000E-7	5.649837E-3
1.549500E-7	5.617288E-3
1.550000E-7	5.521354E-3
1.550500E-7	5.358608E-3
1.551000E-7	5.149609E-3
1.551500E-7	4.920052E-3
1.552000E-7	4.671651E-3
1.552500E-7	4.424963E-3
1.553000E-7	4.179988E-3
1.553500E-7	3.950432E-3
1.554000E-7	3.758563E-3
1.554500E-7	3.619801E-3
1.555000E-7	3.474187E-3
1.555500E-7	3.296024E-3
1.556000E-7	3.145270E-3
1.556500E-7	3.064754E-3
1.557000E-7	3.044196E-3
1.557500E-7	3.081885E-3
1.558000E-7	3.188098E-3
1.558500E-7	3.321720E-3
1.559000E-7	3.443351E-3
1.559500E-7	3.564982E-3
1.560000E-7	3.700318E-3
1.560500E-7	3.845932E-3
1.561000E-7	3.994973E-3
1.561500E-7	4.126882E-3
1.562000E-7	4.207398E-3
1.562500E-7	4.255365E-3
1.563000E-7	4.313611E-3
1.563500E-7	4.344447E-3
1.564000E-7	4.301619E-3
1.564500E-7	4.219390E-3
1.565000E-7	4.166284E-3
1.565500E-7	4.111464E-3
1.566000E-7	4.029235E-3
1.566500E-7	3.936727E-3
1.567000E-7	3.857924E-3
1.567500E-7	3.825375E-3
1.568000E-7	3.873342E-3
1.568500E-7	3.979555E-3
1.569000E-7	4.090907E-3
1.569500E-7	4.186841E-3
1.570000E-7	4.255365E-3
1.570500E-7	4.296480E-3
1.571000E-7	4.329029E-3
1.571500E-7	4.370144E-3
1.572000E-7	4.399267E-3
1.572500E-7	4.400980E-3
1.573000E-7	4.358152E-3
1.573500E-7	4.286201E-3
1.574000E-7	4.197120E-3
1.574500E-7	4.108038E-3
1.575000E-7	4.008677E-3
1.575500E-7	3.900751E-3
1.576000E-7	3.782547E-3
1.576500E-7	3.636933E-3
1.577000E-7	3.445064E-3
1.577500E-7	3.266901E-3
1.578000E-7	3.164114E-3
1.578500E-7	3.092164E-3
1.579000E-7	2.982525E-3
1.579500E-7	2.890017E-3
1.580000E-7	2.871172E-3
1.580500E-7	2.900295E-3
1.581000E-7	2.924279E-3
1.581500E-7	2.987664E-3
1.582000E-7	3.133278E-3
1.582500E-7	3.321720E-3
1.583000E-7	3.527294E-3
1.583500E-7	3.717449E-3
1.584000E-7	3.873342E-3
1.584500E-7	4.012104E-3
1.585000E-7	4.128595E-3
1.585500E-7	4.193693E-3
1.586000E-7	4.164570E-3
1.586500E-7	4.065210E-3
1.587000E-7	3.943579E-3
1.587500E-7	3.813383E-3
1.588000E-7	3.628367E-3
1.588500E-7	3.386818E-3
1.589000E-7	3.155549E-3
1.589500E-7	2.946549E-3
1.590000E-7	2.722132E-3
1.590500E-7	2.499428E-3
1.591000E-7	2.312699E-3
1.591500E-7	2.155092E-3
1.592000E-7	2.060871E-3
1.592500E-7	2.078002E-3
1.593000E-7	2.218477E-3
1.593500E-7	2.432616E-3
1.594000E-7	2.689583E-3
1.594500E-7	3.013361E-3
1.595000E-7	3.391958E-3
1.595500E-7	3.761990E-3
1.596000E-7	4.065210E-3
1.596500E-7	4.308472E-3
1.597000E-7	4.464365E-3
1.597500E-7	4.498627E-3
1.598000E-7	4.430102E-3
1.598500E-7	4.339308E-3
1.599000E-7	4.245087E-3
1.599500E-7	4.087480E-3
1.600000E-7	3.909317E-3
1.600500E-7	3.787686E-3
1.601000E-7	3.693465E-3
1.601500E-7	3.558129E-3
1.602000E-7	3.407376E-3
1.602500E-7	3.297737E-3
1.603000E-7	3.191524E-3
1.603500E-7	3.087024E-3
1.604000E-7	3.015074E-3
1.604500E-7	2.984238E-3
1.605000E-7	2.955115E-3
1.605500E-7	2.929418E-3
1.606000E-7	2.955115E-3
1.606500E-7	3.028778E-3
1.607000E-7	3.136704E-3
1.607500E-7	3.280606E-3
1.608000E-7	3.460482E-3
1.608500E-7	3.645498E-3
1.609000E-7	3.796252E-3
1.609500E-7	3.907604E-3
1.610000E-7	4.008677E-3
1.610500E-7	4.104612E-3
1.611000E-7	4.186841E-3
1.611500E-7	4.248513E-3
1.612000E-7	4.281062E-3
1.612500E-7	4.265644E-3
1.613000E-7	4.219390E-3
1.613500E-7	4.149152E-3
1.614000E-7	4.034374E-3
1.614500E-7	3.871629E-3
1.615000E-7	3.715736E-3
1.615500E-7	3.594105E-3
1.616000E-7	3.487892E-3
1.616500E-7	3.381679E-3
1.617000E-7	3.290884E-3
1.617500E-7	3.237778E-3
1.618000E-7	3.203516E-3
1.618500E-7	3.165827E-3
1.619000E-7	3.145270E-3
1.619500E-7	3.160688E-3
1.620000E-7	3.205229E-3
1.620500E-7	3.239491E-3
1.621000E-7	3.270327E-3
1.621500E-7	3.342278E-3
1.622000E-7	3.470761E-3
1.622500E-7	3.643785E-3
1.623000E-7	3.840793E-3
1.623500E-7	4.024095E-3
1.624000E-7	4.154292E-3
1.624500E-7	4.236521E-3
1.625000E-7	4.269070E-3
1.625500E-7	4.253652E-3
1.626000E-7	4.202259E-3
1.626500E-7	4.120030E-3
1.627000E-7	4.034374E-3
1.627500E-7	3.986407E-3
1.628000E-7	3.965850E-3
1.628500E-7	3.933301E-3
1.629000E-7	3.929874E-3
1.629500E-7	3.979555E-3
1.630000E-7	4.015530E-3
1.630500E-7	4.010391E-3
1.631000E-7	4.001825E-3
1.631500E-7	4.001825E-3
1.632000E-7	3.969276E-3
1.632500E-7	3.895612E-3
1.633000E-7	3.792826E-3
1.633500E-7	3.659203E-3
1.634000E-7	3.513589E-3
1.634500E-7	3.390245E-3
1.635000E-7	3.304589E-3
1.635500E-7	3.242917E-3
1.636000E-7	3.196663E-3
1.636500E-7	3.167540E-3
1.637000E-7	3.177819E-3
1.637500E-7	3.224073E-3
1.638000E-7	3.289171E-3
1.638500E-7	3.376540E-3
1.639000E-7	3.475900E-3
1.639500E-7	3.570121E-3
1.640000E-7	3.604383E-3
1.640500E-7	3.558129E-3
1.641000E-7	3.453630E-3
1.641500E-7	3.326860E-3
1.642000E-7	3.157262E-3
1.642500E-7	2.931131E-3
1.643000E-7	2.694722E-3
1.643500E-7	2.494288E-3
1.644000E-7	2.324690E-3
1.644500E-7	2.184215E-3
1.645000E-7	2.103699E-3
1.645500E-7	2.100273E-3
1.646000E-7	2.179076E-3
1.646500E-7	2.322977E-3
1.647000E-7	2.451460E-3
1.647500E-7	2.537116E-3
1.648000E-7	2.626198E-3
1.648500E-7	2.727271E-3
1.649000E-7	2.811214E-3
1.649500E-7	2.890017E-3
1.650000E-7	3.004795E-3
1.650500E-7	3.146983E-3
1.651000E-7	3.308015E-3
1.651500E-7	3.475900E-3
1.652000E-7	3.619801E-3
1.652500E-7	3.732867E-3
1.653000E-7	3.832227E-3
1.653500E-7	3.907604E-3
1.654000E-7	3.958997E-3
1.654500E-7	3.982981E-3
1.655000E-7	3.964137E-3
1.655500E-7	3.854498E-3
1.656000E-7	3.705457E-3
1.656500E-7	3.604383E-3
1.657000E-7	3.539285E-3
1.657500E-7	3.438212E-3
1.658000E-7	3.328573E-3
1.658500E-7	3.282319E-3
1.659000E-7	3.292597E-3
1.659500E-7	3.331999E-3
1.660000E-7	3.419368E-3
1.660500E-7	3.563269E-3
1.661000E-7	3.666055E-3
1.661500E-7	3.703744E-3
1.662000E-7	3.693465E-3
1.662500E-7	3.638646E-3
1.663000E-7	3.518728E-3
1.663500E-7	3.362835E-3
1.664000E-7	3.194950E-3
1.664500E-7	2.992803E-3
1.665000E-7	2.776951E-3
1.665500E-7	2.588509E-3
1.666000E-7	2.439469E-3
1.666500E-7	2.333256E-3
1.667000E-7	2.290428E-3
1.667500E-7	2.295567E-3
1.668000E-7	2.328117E-3
1.668500E-7	2.394928E-3
1.669000E-7	2.492575E-3
1.669500E-7	2.622771E-3
1.670000E-7	2.797509E-3
1.670500E-7	2.980811E-3
1.671000E-7	3.111008E-3
1.671500E-7	3.198376E-3
1.672000E-7	3.280606E-3
1.672500E-7	3.366261E-3
1.673000E-7	3.465622E-3
1.673500E-7	3.614662E-3
1.674000E-7	3.791112E-3
1.674500E-7	3.948719E-3
1.675000E-7	4.084054E-3
1.675500E-7	4.154292E-3
1.676000E-7	4.144013E-3
1.676500E-7	4.073776E-3
1.677000E-7	3.953858E-3
1.677500E-7	3.738006E-3
1.678000E-7	3.469048E-3
1.678500E-7	3.237778E-3
1.679000E-7	3.052762E-3
1.679500E-7	2.891730E-3
1.680000E-7	2.782091E-3
1.680500E-7	2.759820E-3
1.681000E-7	2.857467E-3
1.681500E-7	3.042483E-3
1.682000E-7	3.239491E-3
1.682500E-7	3.407376E-3
1.683000E-7	3.546138E-3
1.683500E-7	3.606097E-3
1.684000E-7	3.539285E-3
1.684500E-7	3.405663E-3
1.685000E-7	3.253196E-3
1.685500E-7	3.045910E-3
1.686000E-7	2.788943E-3
1.686500E-7	2.540542E-3
1.687000E-7	2.334969E-3
1.687500E-7	2.187641E-3
1.688000E-7	2.132822E-3
1.688500E-7	2.167084E-3
1.689000E-7	2.290428E-3
1.689500E-7	2.523411E-3
1.690000E-7	2.833484E-3
1.690500E-7	3.182958E-3
1.691000E-7	3.534146E-3
1.691500E-7	3.861350E-3
1.692000E-7	4.123456E-3
1.692500E-7	4.329029E-3
1.693000E-7	4.526037E-3
1.693500E-7	4.719618E-3
1.694000E-7	4.873798E-3
1.694500E-7	4.961167E-3
1.695000E-7	5.002281E-3
1.695500E-7	5.007421E-3
1.696000E-7	4.937183E-3
1.696500E-7	4.786429E-3
1.697000E-7	4.644241E-3
1.697500E-7	4.532889E-3
1.698000E-7	4.419824E-3
1.698500E-7	4.318750E-3
1.699000E-7	4.224529E-3
1.699500E-7	4.097759E-3
1.700000E-7	3.974415E-3
1.700500E-7	3.900751E-3
1.701000E-7	3.842506E-3
1.701500E-7	3.772268E-3
1.702000E-7	3.719162E-3
1.702500E-7	3.666055E-3
1.703000E-7	3.600957E-3
1.703500E-7	3.559843E-3
1.704000E-7	3.539285E-3
1.704500E-7	3.472474E-3
1.705000E-7	3.378253E-3
1.705500E-7	3.297737E-3
1.706000E-7	3.205229E-3
1.706500E-7	3.099016E-3
1.707000E-7	3.039057E-3
1.707500E-7	3.013361E-3
1.708000E-7	2.958541E-3
1.708500E-7	2.871172E-3
1.709000E-7	2.795796E-3
1.709500E-7	2.747828E-3
1.710000E-7	2.710140E-3
1.710500E-7	2.650181E-3
1.711000E-7	2.590222E-3
1.711500E-7	2.561099E-3
1.712000E-7	2.574804E-3
1.712500E-7	2.591935E-3
1.713000E-7	2.631337E-3
1.713500E-7	2.691296E-3
1.714000E-7	2.727271E-3
1.714500E-7	2.732410E-3
1.715000E-7	2.752968E-3
1.715500E-7	2.824918E-3
1.716000E-7	2.934557E-3
1.716500E-7	3.056188E-3
1.717000E-7	3.160688E-3
1.717500E-7	3.217221E-3
1.718000E-7	3.213794E-3
1.718500E-7	3.188098E-3
1.719000E-7	3.169254E-3
1.719500E-7	3.148696E-3
1.720000E-7	3.119573E-3
1.720500E-7	3.099016E-3
1.721000E-7	3.078459E-3
1.721500E-7	3.045910E-3
1.722000E-7	3.028778E-3
1.722500E-7	3.011647E-3
1.723000E-7	2.965393E-3
1.723500E-7	2.949975E-3
1.724000E-7	3.008221E-3
1.724500E-7	3.099016E-3
1.725000E-7	3.186385E-3
1.725500E-7	3.282319E-3
1.726000E-7	3.362835E-3
1.726500E-7	3.400523E-3
1.727000E-7	3.421081E-3
1.727500E-7	3.417654E-3
1.728000E-7	3.367974E-3
1.728500E-7	3.299450E-3
1.729000E-7	3.230925E-3
1.729500E-7	3.146983E-3
1.730000E-7	3.040770E-3
1.730500E-7	2.914000E-3
1.731000E-7	2.758107E-3
1.731500E-7	2.588509E-3
1.732000E-7	2.434329E-3
1.732500E-7	2.298994E-3
1.733000E-7	2.196207E-3
1.733500E-7	2.119117E-3
1.734000E-7	2.047166E-3
1.734500E-7	2.033462E-3
1.735000E-7	2.105412E-3
1.735500E-7	2.196207E-3
1.736000E-7	2.271584E-3
1.736500E-7	2.362379E-3
1.737000E-7	2.473731E-3
1.737500E-7	2.603927E-3
1.738000E-7	2.787230E-3
1.738500E-7	2.997943E-3
1.739000E-7	3.167540E-3
1.739500E-7	3.318294E-3
1.740000E-7	3.479326E-3
1.740500E-7	3.602670E-3
1.741000E-7	3.650637E-3
1.741500E-7	3.660916E-3
1.742000E-7	3.648924E-3
1.742500E-7	3.611236E-3
1.743000E-7	3.544425E-3
1.743500E-7	3.451917E-3
1.744000E-7	3.352556E-3
1.744500E-7	3.280606E-3
1.745000E-7	3.239491E-3
1.745500E-7	3.198376E-3
1.746000E-7	3.189811E-3
1.746500E-7	3.239491E-3
1.747000E-7	3.333712E-3
1.747500E-7	3.451917E-3
1.748000E-7	3.580400E-3
1.748500E-7	3.715736E-3
1.749000E-7	3.875055E-3
1.749500E-7	4.060071E-3
1.750000E-7	4.227956E-3
1.750500E-7	4.323890E-3
1.751000E-7	4.354726E-3
1.751500E-7	4.354726E-3
1.752000E-7	4.325603E-3
1.752500E-7	4.231382E-3
1.753000E-7	4.070349E-3
1.753500E-7	3.881907E-3
1.754000E-7	3.712309E-3
1.754500E-7	3.549564E-3
1.755000E-7	3.385105E-3
1.755500E-7	3.229212E-3
1.756000E-7	3.081885E-3
1.756500E-7	2.934557E-3
1.757000E-7	2.807787E-3
1.757500E-7	2.732410E-3
1.758000E-7	2.711853E-3
1.758500E-7	2.715279E-3
1.759000E-7	2.737550E-3
1.759500E-7	2.831771E-3
1.760000E-7	3.003082E-3
1.760500E-7	3.193237E-3
1.761000E-7	3.354269E-3
1.761500E-7	3.482753E-3
1.762000E-7	3.566695E-3
1.762500E-7	3.619801E-3
1.763000E-7	3.657490E-3
1.763500E-7	3.666055E-3
1.764000E-7	3.631793E-3
1.764500E-7	3.566695E-3
1.765000E-7	3.484466E-3
1.765500E-7	3.347417E-3
1.766000E-7	3.167540E-3
1.766500E-7	3.001369E-3
1.767000E-7	2.872885E-3
1.767500E-7	2.758107E-3
1.768000E-7	2.658747E-3
1.768500E-7	2.631337E-3
1.769000E-7	2.681017E-3
1.769500E-7	2.730697E-3
1.770000E-7	2.725558E-3
1.770500E-7	2.725558E-3
1.771000E-7	2.780378E-3
1.771500E-7	2.799222E-3
1.772000E-7	2.734124E-3
1.772500E-7	2.663886E-3
1.773000E-7	2.614206E-3
1.773500E-7	2.499428E-3
1.774000E-7	2.314412E-3
1.774500E-7	2.137961E-3
1.775000E-7	1.987208E-3
1.775500E-7	1.834741E-3
1.776000E-7	1.747372E-3
1.776500E-7	1.781634E-3
1.777000E-7	1.939241E-3
1.777500E-7	2.179076E-3
1.778000E-7	2.417198E-3
1.778500E-7	2.648468E-3
1.779000E-7	2.939697E-3
1.779500E-7	3.297737E-3
1.780000E-7	3.626654E-3
1.780500E-7	3.888760E-3
1.781000E-7	4.099472E-3
1.781500E-7	4.186841E-3
1.782000E-7	4.111464E-3
1.782500E-7	3.928161E-3
1.783000E-7	3.686613E-3
1.783500E-7	3.367974E-3
1.784000E-7	2.977385E-3
1.784500E-7	2.552534E-3
1.785000E-7	2.182502E-3
1.785500E-7	1.910118E-3
1.786000E-7	1.735380E-3
1.786500E-7	1.670282E-3
1.787000E-7	1.737094E-3
1.787500E-7	1.913544E-3
1.788000E-7	2.149953E-3
1.788500E-7	2.444608E-3
1.789000E-7	2.783804E-3
1.789500E-7	3.124713E-3
1.790000E-7	3.424507E-3
1.790500E-7	3.686613E-3
1.791000E-7	3.851071E-3
1.791500E-7	3.890473E-3
1.792000E-7	3.833940E-3
1.792500E-7	3.715736E-3
1.793000E-7	3.515302E-3
1.793500E-7	3.277179E-3
1.794000E-7	3.054475E-3
1.794500E-7	2.872885E-3
1.795000E-7	2.758107E-3
1.795500E-7	2.725558E-3
1.796000E-7	2.727271E-3
1.796500E-7	2.749542E-3
1.797000E-7	2.848902E-3
1.797500E-7	2.994516E-3
1.798000E-7	3.088737E-3
1.798500E-7	3.134991E-3
1.799000E-7	3.174393E-3
1.799500E-7	3.167540E-3
1.800000E-7	3.109295E-3
1.800500E-7	3.020213E-3
1.801000E-7	2.915713E-3
1.801500E-7	2.824918E-3
1.802000E-7	2.778664E-3
1.802500E-7	2.759820E-3
1.803000E-7	2.773525E-3
1.803500E-7	2.859181E-3
1.804000E-7	3.006508E-3
1.804500E-7	3.174393E-3
1.805000E-7	3.374827E-3
1.805500E-7	3.570121E-3
1.806000E-7	3.695178E-3
1.806500E-7	3.773981E-3
1.807000E-7	3.835653E-3
1.807500E-7	3.816809E-3
1.808000E-7	3.688326E-3
1.808500E-7	3.525580E-3
1.809000E-7	3.376540E-3
1.809500E-7	3.201803E-3
1.810000E-7	2.994516E-3
1.810500E-7	2.794082E-3
1.811000E-7	2.600501E-3
1.811500E-7	2.393215E-3
1.812000E-7	2.153379E-3
1.812500E-7	1.899839E-3
1.813000E-7	1.651438E-3
1.813500E-7	1.427021E-3
1.814000E-7	1.236865E-3
1.814500E-7	1.120374E-3
1.815000E-7	1.084399E-3
1.815500E-7	1.108382E-3
1.816000E-7	1.158062E-3
1.816500E-7	1.231726E-3
1.817000E-7	1.322521E-3
1.817500E-7	1.408176E-3
1.818000E-7	1.510963E-3
1.818500E-7	1.656577E-3
1.819000E-7	1.781634E-3
1.819500E-7	1.810757E-3
1.820000E-7	1.798766E-3
1.820500E-7	1.824462E-3
1.821000E-7	1.867290E-3
1.821500E-7	1.894700E-3
1.822000E-7	1.949519E-3
1.822500E-7	2.081429E-3
1.823000E-7	2.288715E-3
1.823500E-7	2.523411E-3
1.824000E-7	2.758107E-3
1.824500E-7	3.023639E-3
1.825000E-7	3.316581E-3
1.825500E-7	3.594105E-3
1.826000E-7	3.830514E-3
1.826500E-7	4.025809E-3
1.827000E-7	4.133734E-3
1.827500E-7	4.108038E-3
1.828000E-7	3.962423E-3
1.828500E-7	3.727727E-3
1.829000E-7	3.433072E-3
1.829500E-7	3.093877E-3
1.830000E-7	2.744402E-3
1.830500E-7	2.432616E-3
1.831000E-7	2.203059E-3
1.831500E-7	2.074576E-3
1.832000E-7	2.045453E-3
1.832500E-7	2.120830E-3
1.833000E-7	2.302420E-3
1.833500E-7	2.557673E-3
1.834000E-7	2.855754E-3
1.834500E-7	3.133278E-3
1.835000E-7	3.321720E-3
1.835500E-7	3.429646E-3
1.836000E-7	3.477613E-3
1.836500E-7	3.434786E-3
1.837000E-7	3.275466E-3
1.837500E-7	3.032205E-3
1.838000E-7	2.746115E-3
1.838500E-7	2.424051E-3
1.839000E-7	2.125970E-3
1.839500E-7	1.911831E-3
1.840000E-7	1.778208E-3
1.840500E-7	1.728528E-3
1.841000E-7	1.786774E-3
1.841500E-7	1.934101E-3
1.842000E-7	2.127683E-3
1.842500E-7	2.355526E-3
1.843000E-7	2.617632E-3
1.843500E-7	2.876312E-3
1.844000E-7	3.107582E-3
1.844500E-7	3.299450E-3
1.845000E-7	3.410802E-3
1.845500E-7	3.433072E-3
1.846000E-7	3.402236E-3
1.846500E-7	3.379966E-3
1.847000E-7	3.361122E-3
1.847500E-7	3.320007E-3
1.848000E-7	3.261761E-3
1.848500E-7	3.213794E-3
1.849000E-7	3.162401E-3
1.849500E-7	3.112721E-3
1.850000E-7	3.063041E-3
1.850500E-7	2.982525E-3
1.851000E-7	2.895156E-3
1.851500E-7	2.835197E-3
1.852000E-7	2.790656E-3
1.852500E-7	2.737550E-3
1.853000E-7	2.689583E-3
1.853500E-7	2.646755E-3
1.854000E-7	2.578231E-3
1.854500E-7	2.473731E-3
1.855000E-7	2.357239E-3
1.855500E-7	2.275010E-3
1.856000E-7	2.233895E-3
1.856500E-7	2.189355E-3
1.857000E-7	2.136248E-3
1.857500E-7	2.136248E-3
1.858000E-7	2.182502E-3
1.858500E-7	2.216764E-3
1.859000E-7	2.254453E-3
1.859500E-7	2.341821E-3
1.860000E-7	2.470305E-3
1.860500E-7	2.653607E-3
1.861000E-7	2.903721E-3
1.861500E-7	3.203516E-3
1.862000E-7	3.520441E-3
1.862500E-7	3.825375E-3
1.863000E-7	4.101185E-3
1.863500E-7	4.303332E-3
1.864000E-7	4.436955E-3
1.864500E-7	4.486635E-3
1.865000E-7	4.419824E-3
1.865500E-7	4.231382E-3
1.866000E-7	3.941866E-3
1.866500E-7	3.568408E-3
1.867000E-7	3.128139E-3
1.867500E-7	2.669025E-3
1.868000E-7	2.218477E-3
1.868500E-7	1.809044E-3
1.869000E-7	1.454430E-3
1.869500E-7	1.176907E-3
1.870000E-7	1.005596E-3
1.870500E-7	9.456367E-4
1.871000E-7	9.679072E-4
1.871500E-7	1.044997E-3
1.872000E-7	1.171767E-3
1.872500E-7	1.344791E-3
1.873000E-7	1.522955E-3
1.873500E-7	1.713110E-3
1.874000E-7	1.920396E-3
1.874500E-7	2.098560E-3
1.875000E-7	2.197920E-3
1.875500E-7	2.259592E-3
1.876000E-7	2.309272E-3
1.876500E-7	2.341821E-3
1.877000E-7	2.377797E-3
1.877500E-7	2.449747E-3
1.878000E-7	2.550821E-3
1.878500E-7	2.693009E-3
1.879000E-7	2.891730E-3
1.879500E-7	3.121286E-3
1.880000E-7	3.352556E-3
1.880500E-7	3.588965E-3
1.881000E-7	3.804817E-3
1.881500E-7	3.962423E-3
1.882000E-7	4.056645E-3
1.882500E-7	4.092620E-3
1.883000E-7	4.051505E-3
1.883500E-7	3.938440E-3
1.884000E-7	3.799678E-3
1.884500E-7	3.647211E-3
1.885000E-7	3.453630E-3
1.885500E-7	3.246343E-3
1.886000E-7	3.066467E-3
1.886500E-7	2.925992E-3
1.887000E-7	2.843763E-3
1.887500E-7	2.797509E-3
1.888000E-7	2.694722E-3
1.888500E-7	2.540542E-3
1.889000E-7	2.391502E-3
1.889500E-7	2.230469E-3
1.890000E-7	2.033462E-3
1.890500E-7	1.855298E-3
1.891000E-7	1.735380E-3
1.891500E-7	1.613750E-3
1.892000E-7	1.485266E-3
1.892500E-7	1.444152E-3
1.893000E-7	1.505824E-3
1.893500E-7	1.636020E-3
1.894000E-7	1.839880E-3
1.894500E-7	2.091707E-3
1.895000E-7	2.343534E-3
1.895500E-7	2.557673E-3
1.896000E-7	2.732410E-3
1.896500E-7	2.862607E-3
1.897000E-7	2.949975E-3
1.897500E-7	2.994516E-3
1.898000E-7	3.008221E-3
1.898500E-7	3.004795E-3
1.899000E-7	2.992803E-3
1.899500E-7	2.929418E-3
1.900000E-7	2.824918E-3
1.900500E-7	2.710140E-3
1.901000E-7	2.600501E-3
1.901500E-7	2.490862E-3
1.902000E-7	2.393215E-3
1.902500E-7	2.292141E-3
1.903000E-7	2.175650E-3
1.903500E-7	2.067724E-3
1.904000E-7	1.961511E-3
1.904500E-7	1.857011E-3
1.905000E-7	1.774782E-3
1.905500E-7	1.721676E-3
1.906000E-7	1.673708E-3
1.906500E-7	1.646299E-3
1.907000E-7	1.680561E-3
1.907500E-7	1.743946E-3
1.908000E-7	1.819323E-3
1.908500E-7	1.894700E-3
1.909000E-7	1.935814E-3
1.909500E-7	1.930675E-3
1.910000E-7	1.925536E-3
1.910500E-7	1.949519E-3
1.911000E-7	1.963224E-3
1.911500E-7	1.973503E-3
1.912000E-7	2.000912E-3
1.912500E-7	2.045453E-3
1.913000E-7	2.066011E-3
1.913500E-7	2.072863E-3
1.914000E-7	2.108838E-3
1.914500E-7	2.204773E-3
1.915000E-7	2.333256E-3
1.915500E-7	2.444608E-3
1.916000E-7	2.533690E-3
1.916500E-7	2.639903E-3
1.917000E-7	2.759820E-3
1.917500E-7	2.864320E-3
1.918000E-7	2.967107E-3
1.918500E-7	3.104155E-3
1.919000E-7	3.249770E-3
1.919500E-7	3.350843E-3
1.920000E-7	3.409089E-3
1.920500E-7	3.433072E-3
1.921000E-7	3.403950E-3
1.921500E-7	3.321720E-3
1.922000E-7	3.189811E-3
1.922500E-7	3.009934E-3
1.923000E-7	2.783804E-3
1.923500E-7	2.537116E-3
1.924000E-7	2.305846E-3
1.924500E-7	2.105412E-3
1.925000E-7	1.956372E-3
1.925500E-7	1.843306E-3
1.926000E-7	1.742233E-3
1.926500E-7	1.680561E-3
1.927000E-7	1.671995E-3
1.927500E-7	1.685700E-3
1.928000E-7	1.713110E-3
1.928500E-7	1.788487E-3
1.929000E-7	1.889560E-3
1.929500E-7	1.963224E-3
1.930000E-7	2.038601E-3
1.930500E-7	2.137961E-3
1.931000E-7	2.211625E-3
1.931500E-7	2.218477E-3
1.932000E-7	2.192781E-3
1.932500E-7	2.120830E-3
1.933000E-7	2.018044E-3
1.933500E-7	1.910118E-3
1.934000E-7	1.809044E-3
1.934500E-7	1.725102E-3
1.935000E-7	1.701118E-3
1.935500E-7	1.738807E-3
1.936000E-7	1.779921E-3
1.936500E-7	1.836454E-3
1.937000E-7	1.944380E-3
1.937500E-7	2.079716E-3
1.938000E-7	2.206486E-3
1.938500E-7	2.329830E-3
1.939000E-7	2.442895E-3
1.939500E-7	2.504567E-3
1.940000E-7	2.514845E-3
1.940500E-7	2.514845E-3
1.941000E-7	2.506280E-3
1.941500E-7	2.463452E-3
1.942000E-7	2.398354E-3
1.942500E-7	2.334969E-3
1.943000E-7	2.288715E-3
1.943500E-7	2.266445E-3
1.944000E-7	2.281863E-3
1.944500E-7	2.310985E-3
1.945000E-7	2.328117E-3
1.945500E-7	2.348674E-3
1.946000E-7	2.372657E-3
1.946500E-7	2.357239E-3
1.947000E-7	2.316125E-3
1.947500E-7	2.292141E-3
1.948000E-7	2.288715E-3
1.948500E-7	2.290428E-3
1.949000E-7	2.329830E-3
1.949500E-7	2.350387E-3
1.950000E-7	2.300707E-3
1.950500E-7	2.239035E-3
1.951000E-7	2.225330E-3
1.951500E-7	2.191068E-3
1.952000E-7	2.105412E-3
1.952500E-7	2.014617E-3
1.953000E-7	1.903265E-3
1.953500E-7	1.767930E-3
1.954000E-7	1.665143E-3
1.954500E-7	1.605184E-3
1.955000E-7	1.576061E-3
1.955500E-7	1.601758E-3
1.956000E-7	1.678848E-3
1.956500E-7	1.786774E-3
1.957000E-7	1.968363E-3
1.957500E-7	2.184215E-3
1.958000E-7	2.353813E-3
1.958500E-7	2.487436E-3
1.959000E-7	2.677591E-3
1.959500E-7	2.857467E-3
1.960000E-7	2.955115E-3
1.960500E-7	2.991090E-3
1.961000E-7	3.004795E-3
1.961500E-7	2.960254E-3
1.962000E-7	2.860894E-3
1.962500E-7	2.751255E-3
1.963000E-7	2.631337E-3
1.963500E-7	2.499428E-3
1.964000E-7	2.377797E-3
1.964500E-7	2.278436E-3
1.965000E-7	2.206486E-3
1.965500E-7	2.180789E-3
1.966000E-7	2.184215E-3
1.966500E-7	2.201346E-3
1.967000E-7	2.221904E-3
1.967500E-7	2.237322E-3
1.968000E-7	2.221904E-3
1.968500E-7	2.177363E-3
1.969000E-7	2.124256E-3
1.969500E-7	2.066011E-3
1.970000E-7	2.000912E-3
1.970500E-7	1.915257E-3
1.971000E-7	1.821036E-3
1.971500E-7	1.762790E-3
1.972000E-7	1.766216E-3
1.972500E-7	1.802192E-3
1.973000E-7	1.848446E-3
1.973500E-7	1.930675E-3
1.974000E-7	2.072863E-3
1.974500E-7	2.235609E-3
1.975000E-7	2.382936E-3
1.975500E-7	2.531977E-3
1.976000E-7	2.667312E-3
1.976500E-7	2.754681E-3
1.977000E-7	2.804361E-3
1.977500E-7	2.819779E-3
1.978000E-7	2.775238E-3
1.978500E-7	2.675878E-3
1.979000E-7	2.559386E-3
1.979500E-7	2.436042E-3
1.980000E-7	2.275010E-3
1.980500E-7	2.112265E-3
1.981000E-7	1.951232E-3
1.981500E-7	1.779921E-3
1.982000E-7	1.653151E-3
1.982500E-7	1.612037E-3
1.983000E-7	1.634307E-3
1.983500E-7	1.680561E-3
1.984000E-7	1.788487E-3
1.984500E-7	1.940954E-3
1.985000E-7	2.100273E-3
1.985500E-7	2.254453E-3
1.986000E-7	2.429190E-3
1.986500E-7	2.607353E-3
1.987000E-7	2.780378E-3
1.987500E-7	2.961967E-3
1.988000E-7	3.104155E-3
1.988500E-7	3.164114E-3
1.989000E-7	3.167540E-3
1.989500E-7	3.153836E-3
1.990000E-7	3.093877E-3
1.990500E-7	2.960254E-3
1.991000E-7	2.794082E-3
1.991500E-7	2.610780E-3
1.992000E-7	2.384649E-3
1.992500E-7	2.105412E-3
1.993000E-7	1.817610E-3
1.993500E-7	1.581201E-3
1.994000E-7	1.415029E-3
1.994500E-7	1.288259E-3
1.995000E-7	1.188898E-3
1.995500E-7	1.152923E-3
1.996000E-7	1.194038E-3
1.996500E-7	1.291685E-3
1.997000E-7	1.428734E-3
1.997500E-7	1.615463E-3
1.998000E-7	1.821036E-3
1.998500E-7	1.949519E-3
1.999000E-7	1.978642E-3
1.999500E-7	1.959798E-3
2.000000E-7	1.944380E-3
